### linear absorption coefficients(in units of 10^5 cm-1)
   0.0000          0.0000          0.0000          0.0000          0.0000          0.0000          0.0000
   0.0200          0.6001          0.6001          0.6001          0.0000          0.0000          0.0000
   0.0400          0.8364          0.8364          0.8364          0.0000          0.0000          0.0000
   0.0600          1.0170          1.0170          1.0170          0.0000          0.0000          0.0000
   0.0800          1.1751          1.1751          1.1751          0.0000          0.0000          0.0000
   0.1000          1.3241          1.3241          1.3241          0.0000          0.0000          0.0000
   0.1200          1.4710          1.4710          1.4710          0.0000          0.0000          0.0000
   0.1400          1.6191          1.6191          1.6191          0.0000          0.0000          0.0000
   0.1600          1.7701          1.7701          1.7701          0.0000          0.0000          0.0000
   0.1800          1.9241          1.9241          1.9241          0.0000          0.0000          0.0000
   0.2000          2.0806          2.0806          2.0806          0.0000          0.0000          0.0000
   0.2200          2.2383          2.2383          2.2383          0.0000          0.0000          0.0000
   0.2400          2.3960          2.3960          2.3960          0.0000          0.0000          0.0000
   0.2600          2.5520          2.5520          2.5520          0.0000          0.0000          0.0000
   0.2800          2.7048          2.7048          2.7048          0.0000          0.0000          0.0000
   0.3000          2.8529          2.8529          2.8529          0.0000          0.0000          0.0000
   0.3200          2.9951          2.9951          2.9951          0.0000          0.0000          0.0000
   0.3400          3.1303          3.1303          3.1303          0.0000          0.0000          0.0000
   0.3600          3.2577          3.2577          3.2577          0.0000          0.0000          0.0000
   0.3800          3.3767          3.3767          3.3767          0.0000          0.0000          0.0000
   0.4000          3.4871          3.4871          3.4871          0.0000          0.0000          0.0000
   0.4200          3.5889          3.5889          3.5889          0.0000          0.0000          0.0000
   0.4400          3.6825          3.6825          3.6825          0.0000          0.0000          0.0000
   0.4600          3.7684          3.7684          3.7684          0.0000          0.0000          0.0000
   0.4800          3.8473          3.8473          3.8473          0.0000          0.0000          0.0000
   0.5000          3.9200          3.9200          3.9200          0.0000          0.0000          0.0000
   0.5200          3.9875          3.9875          3.9875          0.0000          0.0000          0.0000
   0.5400          4.0509          4.0509          4.0509          0.0000          0.0000          0.0000
   0.5600          4.1111          4.1111          4.1111          0.0000          0.0000          0.0000
   0.5800          4.1690          4.1690          4.1690          0.0000          0.0000          0.0000
   0.6000          4.2255          4.2255          4.2255          0.0000          0.0000          0.0000
   0.6200          4.2815          4.2815          4.2815          0.0000          0.0000          0.0000
   0.6400          4.3376          4.3376          4.3376          0.0000          0.0000          0.0000
   0.6600          4.3942          4.3942          4.3942          0.0000          0.0000          0.0000
   0.6800          4.4519          4.4519          4.4519          0.0000          0.0000          0.0000
   0.7000          4.5107          4.5107          4.5107          0.0000          0.0000          0.0000
   0.7200          4.5709          4.5709          4.5709          0.0000          0.0000          0.0000
   0.7400          4.6323          4.6323          4.6323          0.0000          0.0000          0.0000
   0.7600          4.6946          4.6946          4.6946          0.0000          0.0000          0.0000
   0.7800          4.7576          4.7576          4.7576          0.0000          0.0000          0.0000
   0.8000          4.8207          4.8207          4.8207          0.0000          0.0000          0.0000
   0.8200          4.8833          4.8833          4.8833          0.0000          0.0000          0.0000
   0.8400          4.9448          4.9448          4.9448          0.0000          0.0000          0.0000
   0.8600          5.0044          5.0044          5.0044          0.0000          0.0000          0.0000
   0.8800          5.0614          5.0614          5.0614          0.0000          0.0000          0.0000
   0.9000          5.1150          5.1150          5.1150          0.0000          0.0000          0.0000
   0.9200          5.1647          5.1647          5.1647          0.0000          0.0000          0.0000
   0.9400          5.2099          5.2099          5.2099          0.0000          0.0000          0.0000
   0.9600          5.2500          5.2500          5.2500          0.0000          0.0000          0.0000
   0.9800          5.2849          5.2849          5.2849          0.0000          0.0000          0.0000
   1.0000          5.3143          5.3143          5.3143          0.0000          0.0000          0.0000
   1.0200          5.3382          5.3382          5.3382          0.0000          0.0000          0.0000
   1.0400          5.3567          5.3567          5.3567          0.0000          0.0000          0.0000
   1.0600          5.3703          5.3703          5.3703          0.0000          0.0000          0.0000
   1.0800          5.3791          5.3791          5.3791          0.0000          0.0000          0.0000
   1.1000          5.3837          5.3837          5.3837          0.0000          0.0000          0.0000
   1.1200          5.3845          5.3845          5.3845          0.0000          0.0000          0.0000
   1.1400          5.3821          5.3821          5.3821          0.0000          0.0000          0.0000
   1.1600          5.3769          5.3769          5.3769          0.0000          0.0000          0.0000
   1.1800          5.3694          5.3694          5.3694          0.0000          0.0000          0.0000
   1.2000          5.3599          5.3599          5.3599          0.0000          0.0000          0.0000
   1.2200          5.3486          5.3486          5.3486          0.0000          0.0000          0.0000
   1.2400          5.3360          5.3360          5.3360          0.0000          0.0000          0.0000
   1.2600          5.3220          5.3220          5.3220          0.0000          0.0000          0.0000
   1.2800          5.3068          5.3068          5.3068          0.0000          0.0000          0.0000
   1.3000          5.2904          5.2904          5.2904          0.0000          0.0000          0.0000
   1.3200          5.2728          5.2728          5.2728          0.0000          0.0000          0.0000
   1.3400          5.2540          5.2540          5.2540          0.0000          0.0000          0.0000
   1.3600          5.2340          5.2340          5.2340          0.0000          0.0000          0.0000
   1.3800          5.2126          5.2126          5.2126          0.0000          0.0000          0.0000
   1.4000          5.1899          5.1899          5.1899          0.0000          0.0000          0.0000
   1.4200          5.1658          5.1658          5.1658          0.0000          0.0000          0.0000
   1.4400          5.1404          5.1404          5.1404          0.0000          0.0000          0.0000
   1.4600          5.1136          5.1136          5.1136          0.0000          0.0000          0.0000
   1.4800          5.0856          5.0856          5.0856          0.0000          0.0000          0.0000
   1.5000          5.0565          5.0565          5.0565          0.0000          0.0000          0.0000
   1.5200          5.0265          5.0265          5.0265          0.0000          0.0000          0.0000
   1.5400          4.9959          4.9959          4.9959          0.0000          0.0000          0.0000
   1.5600          4.9651          4.9651          4.9651          0.0000          0.0000          0.0000
   1.5800          4.9344          4.9344          4.9344          0.0000          0.0000          0.0000
   1.6000          4.9042          4.9042          4.9042          0.0000          0.0000          0.0000
   1.6200          4.8751          4.8751          4.8751          0.0000          0.0000          0.0000
   1.6400          4.8473          4.8473          4.8473          0.0000          0.0000          0.0000
   1.6600          4.8212          4.8212          4.8212          0.0000          0.0000          0.0000
   1.6800          4.7972          4.7972          4.7972          0.0000          0.0000          0.0000
   1.7000          4.7754          4.7754          4.7754          0.0000          0.0000          0.0000
   1.7200          4.7558          4.7558          4.7558          0.0000          0.0000          0.0000
   1.7400          4.7385          4.7385          4.7385          0.0000          0.0000          0.0000
   1.7600          4.7231          4.7231          4.7231          0.0000          0.0000          0.0000
   1.7800          4.7093          4.7093          4.7093          0.0000          0.0000          0.0000
   1.8000          4.6966          4.6966          4.6966          0.0000          0.0000          0.0000
   1.8200          4.6845          4.6845          4.6845          0.0000          0.0000          0.0000
   1.8400          4.6722          4.6722          4.6722          0.0000          0.0000          0.0000
   1.8600          4.6592          4.6592          4.6592          0.0000          0.0000          0.0000
   1.8800          4.6449          4.6449          4.6449          0.0000          0.0000          0.0000
   1.9000          4.6287          4.6287          4.6287          0.0000          0.0000          0.0000
   1.9200          4.6103          4.6103          4.6103          0.0000          0.0000          0.0000
   1.9400          4.5895          4.5895          4.5895          0.0000          0.0000          0.0000
   1.9600          4.5662          4.5662          4.5662          0.0000          0.0000          0.0000
   1.9800          4.5408          4.5408          4.5408          0.0000          0.0000          0.0000
   2.0000          4.5138          4.5138          4.5138          0.0000          0.0000          0.0000
   2.0200          4.4860          4.4860          4.4860          0.0000          0.0000          0.0000
   2.0400          4.4584          4.4584          4.4584          0.0000          0.0000          0.0000
   2.0600          4.4324          4.4324          4.4324          0.0000          0.0000          0.0000
   2.0800          4.4093          4.4093          4.4093          0.0000          0.0000          0.0000
   2.1000          4.3905          4.3905          4.3905          0.0000          0.0000          0.0000
   2.1200          4.3775          4.3775          4.3775          0.0000          0.0000          0.0000
   2.1400          4.3716          4.3716          4.3716          0.0000          0.0000          0.0000
   2.1600          4.3739          4.3739          4.3739          0.0000          0.0000          0.0000
   2.1800          4.3853          4.3853          4.3853          0.0000          0.0000          0.0000
   2.2000          4.4062          4.4062          4.4062          0.0000          0.0000          0.0000
   2.2200          4.4372          4.4372          4.4372          0.0000          0.0000          0.0000
   2.2400          4.4780          4.4780          4.4780          0.0000          0.0000          0.0000
   2.2600          4.5285          4.5285          4.5285          0.0000          0.0000          0.0000
   2.2800          4.5883          4.5883          4.5883          0.0000          0.0000          0.0000
   2.3000          4.6567          4.6567          4.6567          0.0000          0.0000          0.0000
   2.3200          4.7330          4.7330          4.7330          0.0000          0.0000          0.0000
   2.3400          4.8166          4.8166          4.8166          0.0000          0.0000          0.0000
   2.3600          4.9068          4.9068          4.9068          0.0000          0.0000          0.0000
   2.3800          5.0031          5.0031          5.0031          0.0000          0.0000          0.0000
   2.4000          5.1049          5.1049          5.1049          0.0000          0.0000          0.0000
   2.4200          5.2120          5.2120          5.2120          0.0000          0.0000          0.0000
   2.4400          5.3242          5.3242          5.3242          0.0000          0.0000          0.0000
   2.4600          5.4413          5.4413          5.4413          0.0000          0.0000          0.0000
   2.4800          5.5634          5.5634          5.5634          0.0000          0.0000          0.0000
   2.5000          5.6907          5.6907          5.6907          0.0000          0.0000          0.0000
   2.5200          5.8232          5.8232          5.8232          0.0000          0.0000          0.0000
   2.5400          5.9611          5.9611          5.9611          0.0000          0.0000          0.0000
   2.5600          6.1045          6.1045          6.1045          0.0000          0.0000          0.0000
   2.5800          6.2536          6.2536          6.2536          0.0000          0.0000          0.0000
   2.6000          6.4082          6.4082          6.4082          0.0000          0.0000          0.0000
   2.6200          6.5685          6.5685          6.5685          0.0000          0.0000          0.0000
   2.6400          6.7343          6.7343          6.7343          0.0000          0.0000          0.0000
   2.6600          6.9055          6.9055          6.9055          0.0000          0.0000          0.0000
   2.6800          7.0818          7.0818          7.0818          0.0000          0.0000          0.0000
   2.7000          7.2631          7.2631          7.2631          0.0000          0.0000          0.0000
   2.7200          7.4490          7.4490          7.4490          0.0000          0.0000          0.0000
   2.7400          7.6392          7.6392          7.6392          0.0000          0.0000          0.0000
   2.7600          7.8334          7.8334          7.8334          0.0000          0.0000          0.0000
   2.7800          8.0310          8.0310          8.0310          0.0000          0.0000          0.0000
   2.8000          8.2315          8.2315          8.2315          0.0000          0.0000          0.0000
   2.8200          8.4342          8.4342          8.4342          0.0000          0.0000          0.0000
   2.8400          8.6384          8.6384          8.6384          0.0000          0.0000          0.0000
   2.8600          8.8431          8.8431          8.8431          0.0000          0.0000          0.0000
   2.8800          9.0472          9.0472          9.0472          0.0000          0.0000          0.0000
   2.9000          9.2495          9.2495          9.2495          0.0000          0.0000          0.0000
   2.9200          9.4490          9.4490          9.4490          0.0000          0.0000          0.0000
   2.9400          9.6442          9.6442          9.6442          0.0000          0.0000          0.0000
   2.9600          9.8340          9.8340          9.8340          0.0000          0.0000          0.0000
   2.9800         10.0174         10.0174         10.0174          0.0000          0.0000          0.0000
   3.0000         10.1935         10.1935         10.1935          0.0000          0.0000          0.0000
   3.0200         10.3616         10.3616         10.3616          0.0000          0.0000          0.0000
   3.0400         10.5214         10.5214         10.5214          0.0000          0.0000          0.0000
   3.0600         10.6729         10.6729         10.6729          0.0000          0.0000          0.0000
   3.0800         10.8166         10.8166         10.8166          0.0000          0.0000          0.0000
   3.1000         10.9532         10.9532         10.9532          0.0000          0.0000          0.0000
   3.1200         11.0836         11.0836         11.0836          0.0000          0.0000          0.0000
   3.1400         11.2091         11.2091         11.2091          0.0000          0.0000          0.0000
   3.1600         11.3309         11.3309         11.3309          0.0000          0.0000          0.0000
   3.1800         11.4504         11.4504         11.4504          0.0000          0.0000          0.0000
   3.2000         11.5687         11.5687         11.5687          0.0000          0.0000          0.0000
   3.2200         11.6868         11.6868         11.6868          0.0000          0.0000          0.0000
   3.2400         11.8052         11.8052         11.8052          0.0000          0.0000          0.0000
   3.2600         11.9243         11.9243         11.9243          0.0000          0.0000          0.0000
   3.2800         12.0438         12.0438         12.0438          0.0000          0.0000          0.0000
   3.3000         12.1633         12.1633         12.1633          0.0000          0.0000          0.0000
   3.3200         12.2820         12.2820         12.2820          0.0000          0.0000          0.0000
   3.3400         12.3989         12.3989         12.3989          0.0000          0.0000          0.0000
   3.3600         12.5129         12.5129         12.5129          0.0000          0.0000          0.0000
   3.3800         12.6229         12.6229         12.6229          0.0000          0.0000          0.0000
   3.4000         12.7278         12.7278         12.7278          0.0000          0.0000          0.0000
   3.4200         12.8269         12.8269         12.8269          0.0000          0.0000          0.0000
   3.4400         12.9195         12.9195         12.9195          0.0000          0.0000          0.0000
   3.4600         13.0052         13.0052         13.0052          0.0000          0.0000          0.0000
   3.4800         13.0839         13.0839         13.0839          0.0000          0.0000          0.0000
   3.5000         13.1558         13.1558         13.1558          0.0000          0.0000          0.0000
   3.5200         13.2212         13.2212         13.2212          0.0000          0.0000          0.0000
   3.5400         13.2806         13.2806         13.2806          0.0000          0.0000          0.0000
   3.5600         13.3346         13.3346         13.3346          0.0000          0.0000          0.0000
   3.5800         13.3837         13.3837         13.3837          0.0000          0.0000          0.0000
   3.6000         13.4284         13.4284         13.4284          0.0000          0.0000          0.0000
   3.6200         13.4691         13.4691         13.4691          0.0000          0.0000          0.0000
   3.6400         13.5060         13.5060         13.5060          0.0000          0.0000          0.0000
   3.6600         13.5392         13.5392         13.5392          0.0000          0.0000          0.0000
   3.6800         13.5685         13.5685         13.5685          0.0000          0.0000          0.0000
   3.7000         13.5938         13.5938         13.5938          0.0000          0.0000          0.0000
   3.7200         13.6146         13.6146         13.6146          0.0000          0.0000          0.0000
   3.7400         13.6307         13.6307         13.6307          0.0000          0.0000          0.0000
