### imag part of conductivity (in units of 10^15 sec^-1)
   0.0000          3.2898          3.2898          3.2898          0.0000          0.0000          0.0000
   0.0200          3.0777          3.0777          3.0777          0.0000          0.0000          0.0000
   0.0400          2.8749          2.8749          2.8749          0.0000          0.0000          0.0000
   0.0600          2.6900          2.6900          2.6900          0.0000          0.0000          0.0000
   0.0800          2.5310          2.5310          2.5310          0.0000          0.0000          0.0000
   0.1000          2.4043          2.4043          2.4043          0.0000          0.0000          0.0000
   0.1200          2.3148          2.3148          2.3148          0.0000          0.0000          0.0000
   0.1400          2.2654          2.2654          2.2654          0.0000          0.0000          0.0000
   0.1600          2.2573          2.2573          2.2573          0.0000          0.0000          0.0000
   0.1800          2.2895          2.2895          2.2895          0.0000          0.0000          0.0000
   0.2000          2.3595          2.3595          2.3595          0.0000          0.0000          0.0000
   0.2200          2.4631          2.4631          2.4631          0.0000          0.0000          0.0000
   0.2400          2.5950          2.5950          2.5950          0.0000          0.0000          0.0000
   0.2600          2.7488          2.7488          2.7488          0.0000          0.0000          0.0000
   0.2800          2.9180          2.9180          2.9180          0.0000          0.0000          0.0000
   0.3000          3.0959          3.0959          3.0959          0.0000          0.0000          0.0000
   0.3200          3.2761          3.2761          3.2761          0.0000          0.0000          0.0000
   0.3400          3.4527          3.4527          3.4527          0.0000          0.0000          0.0000
   0.3600          3.6209          3.6209          3.6209          0.0000          0.0000          0.0000
   0.3800          3.7767          3.7767          3.7767          0.0000          0.0000          0.0000
   0.4000          3.9172          3.9172          3.9172          0.0000          0.0000          0.0000
   0.4200          4.0407          4.0407          4.0407          0.0000          0.0000          0.0000
   0.4400          4.1464          4.1464          4.1464          0.0000          0.0000          0.0000
   0.4600          4.2345          4.2345          4.2345          0.0000          0.0000          0.0000
   0.4800          4.3056          4.3056          4.3056          0.0000          0.0000          0.0000
   0.5000          4.3614          4.3614          4.3614          0.0000          0.0000          0.0000
   0.5200          4.4036          4.4036          4.4036          0.0000          0.0000          0.0000
   0.5400          4.4344          4.4344          4.4344          0.0000          0.0000          0.0000
   0.5600          4.4559          4.4559          4.4559          0.0000          0.0000          0.0000
   0.5800          4.4703          4.4703          4.4703          0.0000          0.0000          0.0000
   0.6000          4.4799          4.4799          4.4799          0.0000          0.0000          0.0000
   0.6200          4.4865          4.4865          4.4865          0.0000          0.0000          0.0000
   0.6400          4.4920          4.4920          4.4920          0.0000          0.0000          0.0000
   0.6600          4.4979          4.4979          4.4979          0.0000          0.0000          0.0000
   0.6800          4.5055          4.5055          4.5055          0.0000          0.0000          0.0000
   0.7000          4.5158          4.5158          4.5158          0.0000          0.0000          0.0000
   0.7200          4.5298          4.5298          4.5298          0.0000          0.0000          0.0000
   0.7400          4.5477          4.5477          4.5477          0.0000          0.0000          0.0000
   0.7600          4.5700          4.5700          4.5700          0.0000          0.0000          0.0000
   0.7800          4.5963          4.5963          4.5963          0.0000          0.0000          0.0000
   0.8000          4.6265          4.6265          4.6265          0.0000          0.0000          0.0000
   0.8200          4.6598          4.6598          4.6598          0.0000          0.0000          0.0000
   0.8400          4.6953          4.6953          4.6953          0.0000          0.0000          0.0000
   0.8600          4.7320          4.7320          4.7320          0.0000          0.0000          0.0000
   0.8800          4.7688          4.7688          4.7688          0.0000          0.0000          0.0000
   0.9000          4.8041          4.8041          4.8041          0.0000          0.0000          0.0000
   0.9200          4.8369          4.8369          4.8369          0.0000          0.0000          0.0000
   0.9400          4.8658          4.8658          4.8658          0.0000          0.0000          0.0000
   0.9600          4.8898          4.8898          4.8898          0.0000          0.0000          0.0000
   0.9800          4.9080          4.9080          4.9080          0.0000          0.0000          0.0000
   1.0000          4.9197          4.9197          4.9197          0.0000          0.0000          0.0000
   1.0200          4.9245          4.9245          4.9245          0.0000          0.0000          0.0000
   1.0400          4.9224          4.9224          4.9224          0.0000          0.0000          0.0000
   1.0600          4.9133          4.9133          4.9133          0.0000          0.0000          0.0000
   1.0800          4.8977          4.8977          4.8977          0.0000          0.0000          0.0000
   1.1000          4.8760          4.8760          4.8760          0.0000          0.0000          0.0000
   1.1200          4.8488          4.8488          4.8488          0.0000          0.0000          0.0000
   1.1400          4.8169          4.8169          4.8169          0.0000          0.0000          0.0000
   1.1600          4.7810          4.7810          4.7810          0.0000          0.0000          0.0000
   1.1800          4.7416          4.7416          4.7416          0.0000          0.0000          0.0000
   1.2000          4.6994          4.6994          4.6994          0.0000          0.0000          0.0000
   1.2200          4.6550          4.6550          4.6550          0.0000          0.0000          0.0000
   1.2400          4.6087          4.6087          4.6087          0.0000          0.0000          0.0000
   1.2600          4.5609          4.5609          4.5609          0.0000          0.0000          0.0000
   1.2800          4.5119          4.5119          4.5119          0.0000          0.0000          0.0000
   1.3000          4.4617          4.4617          4.4617          0.0000          0.0000          0.0000
   1.3200          4.4106          4.4106          4.4106          0.0000          0.0000          0.0000
   1.3400          4.3585          4.3585          4.3585          0.0000          0.0000          0.0000
   1.3600          4.3053          4.3053          4.3053          0.0000          0.0000          0.0000
   1.3800          4.2512          4.2512          4.2512          0.0000          0.0000          0.0000
   1.4000          4.1959          4.1959          4.1959          0.0000          0.0000          0.0000
   1.4200          4.1395          4.1395          4.1395          0.0000          0.0000          0.0000
   1.4400          4.0818          4.0818          4.0818          0.0000          0.0000          0.0000
   1.4600          4.0227          4.0227          4.0227          0.0000          0.0000          0.0000
   1.4800          3.9623          3.9623          3.9623          0.0000          0.0000          0.0000
   1.5000          3.9004          3.9004          3.9004          0.0000          0.0000          0.0000
   1.5200          3.8372          3.8372          3.8372          0.0000          0.0000          0.0000
   1.5400          3.7727          3.7727          3.7727          0.0000          0.0000          0.0000
   1.5600          3.7070          3.7070          3.7070          0.0000          0.0000          0.0000
   1.5800          3.6403          3.6403          3.6403          0.0000          0.0000          0.0000
   1.6000          3.5729          3.5729          3.5729          0.0000          0.0000          0.0000
   1.6200          3.5050          3.5050          3.5050          0.0000          0.0000          0.0000
   1.6400          3.4370          3.4370          3.4370          0.0000          0.0000          0.0000
   1.6600          3.3692          3.3692          3.3692          0.0000          0.0000          0.0000
   1.6800          3.3020          3.3020          3.3020          0.0000          0.0000          0.0000
   1.7000          3.2356          3.2356          3.2356          0.0000          0.0000          0.0000
   1.7200          3.1703          3.1703          3.1703          0.0000          0.0000          0.0000
   1.7400          3.1062          3.1062          3.1062          0.0000          0.0000          0.0000
   1.7600          3.0436          3.0436          3.0436          0.0000          0.0000          0.0000
   1.7800          2.9822          2.9822          2.9822          0.0000          0.0000          0.0000
   1.8000          2.9220          2.9220          2.9220          0.0000          0.0000          0.0000
   1.8200          2.8627          2.8627          2.8627          0.0000          0.0000          0.0000
   1.8400          2.8038          2.8038          2.8038          0.0000          0.0000          0.0000
   1.8600          2.7448          2.7448          2.7448          0.0000          0.0000          0.0000
   1.8800          2.6851          2.6851          2.6851          0.0000          0.0000          0.0000
   1.9000          2.6240          2.6240          2.6240          0.0000          0.0000          0.0000
   1.9200          2.5607          2.5607          2.5607          0.0000          0.0000          0.0000
   1.9400          2.4945          2.4945          2.4945          0.0000          0.0000          0.0000
   1.9600          2.4247          2.4247          2.4247          0.0000          0.0000          0.0000
   1.9800          2.3508          2.3508          2.3508          0.0000          0.0000          0.0000
   2.0000          2.2723          2.2723          2.2723          0.0000          0.0000          0.0000
   2.0200          2.1888          2.1888          2.1888          0.0000          0.0000          0.0000
   2.0400          2.1003          2.1003          2.1003          0.0000          0.0000          0.0000
   2.0600          2.0068          2.0068          2.0068          0.0000          0.0000          0.0000
   2.0800          1.9086          1.9086          1.9086          0.0000          0.0000          0.0000
   2.1000          1.8063          1.8063          1.8063          0.0000          0.0000          0.0000
   2.1200          1.7006          1.7006          1.7006          0.0000          0.0000          0.0000
   2.1400          1.5922          1.5922          1.5922          0.0000          0.0000          0.0000
   2.1600          1.4823          1.4823          1.4823          0.0000          0.0000          0.0000
   2.1800          1.3719          1.3719          1.3719          0.0000          0.0000          0.0000
   2.2000          1.2620          1.2620          1.2620          0.0000          0.0000          0.0000
   2.2200          1.1538          1.1538          1.1538          0.0000          0.0000          0.0000
   2.2400          1.0482          1.0482          1.0482          0.0000          0.0000          0.0000
   2.2600          0.9462          0.9462          0.9462          0.0000          0.0000          0.0000
   2.2800          0.8484          0.8484          0.8484          0.0000          0.0000          0.0000
   2.3000          0.7555          0.7555          0.7555          0.0000          0.0000          0.0000
   2.3200          0.6677          0.6677          0.6677          0.0000          0.0000          0.0000
   2.3400          0.5854          0.5854          0.5854          0.0000          0.0000          0.0000
   2.3600          0.5087          0.5087          0.5087          0.0000          0.0000          0.0000
   2.3800          0.4374          0.4374          0.4374          0.0000          0.0000          0.0000
   2.4000          0.3715          0.3715          0.3715          0.0000          0.0000          0.0000
   2.4200          0.3109          0.3109          0.3109          0.0000          0.0000          0.0000
   2.4400          0.2557          0.2557          0.2557          0.0000          0.0000          0.0000
   2.4600          0.2057          0.2057          0.2057          0.0000          0.0000          0.0000
   2.4800          0.1612          0.1612          0.1612          0.0000          0.0000          0.0000
   2.5000          0.1224          0.1224          0.1224          0.0000          0.0000          0.0000
   2.5200          0.0895          0.0895          0.0895          0.0000          0.0000          0.0000
   2.5400          0.0631          0.0631          0.0631          0.0000          0.0000          0.0000
   2.5600          0.0437          0.0437          0.0437          0.0000          0.0000          0.0000
   2.5800          0.0318          0.0318          0.0318          0.0000          0.0000          0.0000
   2.6000          0.0281          0.0281          0.0281          0.0000          0.0000          0.0000
   2.6200          0.0331          0.0331          0.0331          0.0000          0.0000          0.0000
   2.6400          0.0474          0.0474          0.0474          0.0000          0.0000          0.0000
   2.6600          0.0716          0.0716          0.0716          0.0000          0.0000          0.0000
   2.6800          0.1062          0.1062          0.1062          0.0000          0.0000          0.0000
   2.7000          0.1517          0.1517          0.1517          0.0000          0.0000          0.0000
   2.7200          0.2084          0.2084          0.2084          0.0000          0.0000          0.0000
   2.7400          0.2769          0.2769          0.2769          0.0000          0.0000          0.0000
   2.7600          0.3574          0.3574          0.3574          0.0000          0.0000          0.0000
   2.7800          0.4501          0.4501          0.4501          0.0000          0.0000          0.0000
   2.8000          0.5553          0.5553          0.5553          0.0000          0.0000          0.0000
   2.8200          0.6730          0.6730          0.6730          0.0000          0.0000          0.0000
   2.8400          0.8028          0.8028          0.8028          0.0000          0.0000          0.0000
   2.8600          0.9445          0.9445          0.9445          0.0000          0.0000          0.0000
   2.8800          1.0973          1.0973          1.0973          0.0000          0.0000          0.0000
   2.9000          1.2600          1.2600          1.2600          0.0000          0.0000          0.0000
   2.9200          1.4315          1.4315          1.4315          0.0000          0.0000          0.0000
   2.9400          1.6099          1.6099          1.6099          0.0000          0.0000          0.0000
   2.9600          1.7935          1.7935          1.7935          0.0000          0.0000          0.0000
   2.9800          1.9799          1.9799          1.9799          0.0000          0.0000          0.0000
   3.0000          2.1673          2.1673          2.1673          0.0000          0.0000          0.0000
   3.0200          2.3533          2.3533          2.3533          0.0000          0.0000          0.0000
   3.0400          2.5362          2.5362          2.5362          0.0000          0.0000          0.0000
   3.0600          2.7143          2.7143          2.7143          0.0000          0.0000          0.0000
   3.0800          2.8865          2.8865          2.8865          0.0000          0.0000          0.0000
   3.1000          3.0522          3.0522          3.0522          0.0000          0.0000          0.0000
   3.1200          3.2113          3.2113          3.2113          0.0000          0.0000          0.0000
   3.1400          3.3641          3.3641          3.3641          0.0000          0.0000          0.0000
   3.1600          3.5114          3.5114          3.5114          0.0000          0.0000          0.0000
   3.1800          3.6546          3.6546          3.6546          0.0000          0.0000          0.0000
   3.2000          3.7949          3.7949          3.7949          0.0000          0.0000          0.0000
   3.2200          3.9338          3.9338          3.9338          0.0000          0.0000          0.0000
   3.2400          4.0727          4.0727          4.0727          0.0000          0.0000          0.0000
   3.2600          4.2126          4.2126          4.2126          0.0000          0.0000          0.0000
   3.2800          4.3542          4.3542          4.3542          0.0000          0.0000          0.0000
   3.3000          4.4980          4.4980          4.4980          0.0000          0.0000          0.0000
   3.3200          4.6436          4.6436          4.6436          0.0000          0.0000          0.0000
   3.3400          4.7905          4.7905          4.7905          0.0000          0.0000          0.0000
   3.3600          4.9378          4.9378          4.9378          0.0000          0.0000          0.0000
   3.3800          5.0841          5.0841          5.0841          0.0000          0.0000          0.0000
   3.4000          5.2281          5.2281          5.2281          0.0000          0.0000          0.0000
   3.4200          5.3685          5.3685          5.3685          0.0000          0.0000          0.0000
   3.4400          5.5038          5.5038          5.5038          0.0000          0.0000          0.0000
   3.4600          5.6331          5.6331          5.6331          0.0000          0.0000          0.0000
   3.4800          5.7555          5.7555          5.7555          0.0000          0.0000          0.0000
   3.5000          5.8706          5.8706          5.8706          0.0000          0.0000          0.0000
   3.5200          5.9781          5.9781          5.9781          0.0000          0.0000          0.0000
   3.5400          6.0782          6.0782          6.0782          0.0000          0.0000          0.0000
   3.5600          6.1711          6.1711          6.1711          0.0000          0.0000          0.0000
   3.5800          6.2574          6.2574          6.2574          0.0000          0.0000          0.0000
   3.6000          6.3374          6.3374          6.3374          0.0000          0.0000          0.0000
   3.6200          6.4116          6.4116          6.4116          0.0000          0.0000          0.0000
   3.6400          6.4806          6.4806          6.4806          0.0000          0.0000          0.0000
   3.6600          6.5444          6.5444          6.5444          0.0000          0.0000          0.0000
   3.6800          6.6033          6.6033          6.6033          0.0000          0.0000          0.0000
   3.7000          6.6571          6.6571          6.6571          0.0000          0.0000          0.0000
   3.7200          6.7057          6.7057          6.7057          0.0000          0.0000          0.0000
   3.7400          6.7485          6.7485          6.7485          0.0000          0.0000          0.0000
