### real part of conductivity (in units of 10^15 sec^-1)
   0.0000          0.0000          0.0000          0.0000          0.0000          0.0000          0.0000
   0.0200          4.4460          4.4460          4.4460          0.0000          0.0000          0.0000
   0.0400          4.5121          4.5121          4.5121          0.0000          0.0000          0.0000
   0.0600          4.6189          4.6189          4.6189          0.0000          0.0000          0.0000
   0.0800          4.7615          4.7615          4.7615          0.0000          0.0000          0.0000
   0.1000          4.9335          4.9335          4.9335          0.0000          0.0000          0.0000
   0.1200          5.1273          5.1273          5.1273          0.0000          0.0000          0.0000
   0.1400          5.3346          5.3346          5.3346          0.0000          0.0000          0.0000
   0.1600          5.5468          5.5468          5.5468          0.0000          0.0000          0.0000
   0.1800          5.7553          5.7553          5.7553          0.0000          0.0000          0.0000
   0.2000          5.9525          5.9525          5.9525          0.0000          0.0000          0.0000
   0.2200          6.1315          6.1315          6.1315          0.0000          0.0000          0.0000
   0.2400          6.2867          6.2867          6.2867          0.0000          0.0000          0.0000
   0.2600          6.4141          6.4141          6.4141          0.0000          0.0000          0.0000
   0.2800          6.5112          6.5112          6.5112          0.0000          0.0000          0.0000
   0.3000          6.5771          6.5771          6.5771          0.0000          0.0000          0.0000
   0.3200          6.6124          6.6124          6.6124          0.0000          0.0000          0.0000
   0.3400          6.6189          6.6189          6.6189          0.0000          0.0000          0.0000
   0.3600          6.5995          6.5995          6.5995          0.0000          0.0000          0.0000
   0.3800          6.5577          6.5577          6.5577          0.0000          0.0000          0.0000
   0.4000          6.4978          6.4978          6.4978          0.0000          0.0000          0.0000
   0.4200          6.4239          6.4239          6.4239          0.0000          0.0000          0.0000
   0.4400          6.3402          6.3402          6.3402          0.0000          0.0000          0.0000
   0.4600          6.2508          6.2508          6.2508          0.0000          0.0000          0.0000
   0.4800          6.1592          6.1592          6.1592          0.0000          0.0000          0.0000
   0.5000          6.0684          6.0684          6.0684          0.0000          0.0000          0.0000
   0.5200          5.9808          5.9808          5.9808          0.0000          0.0000          0.0000
   0.5400          5.8983          5.8983          5.8983          0.0000          0.0000          0.0000
   0.5600          5.8221          5.8221          5.8221          0.0000          0.0000          0.0000
   0.5800          5.7531          5.7531          5.7531          0.0000          0.0000          0.0000
   0.6000          5.6915          5.6915          5.6915          0.0000          0.0000          0.0000
   0.6200          5.6372          5.6372          5.6372          0.0000          0.0000          0.0000
   0.6400          5.5897          5.5897          5.5897          0.0000          0.0000          0.0000
   0.6600          5.5484          5.5484          5.5484          0.0000          0.0000          0.0000
   0.6800          5.5123          5.5123          5.5123          0.0000          0.0000          0.0000
   0.7000          5.4803          5.4803          5.4803          0.0000          0.0000          0.0000
   0.7200          5.4511          5.4511          5.4511          0.0000          0.0000          0.0000
   0.7400          5.4235          5.4235          5.4235          0.0000          0.0000          0.0000
   0.7600          5.3959          5.3959          5.3959          0.0000          0.0000          0.0000
   0.7800          5.3672          5.3672          5.3672          0.0000          0.0000          0.0000
   0.8000          5.3360          5.3360          5.3360          0.0000          0.0000          0.0000
   0.8200          5.3010          5.3010          5.3010          0.0000          0.0000          0.0000
   0.8400          5.2615          5.2615          5.2615          0.0000          0.0000          0.0000
   0.8600          5.2165          5.2165          5.2165          0.0000          0.0000          0.0000
   0.8800          5.1656          5.1656          5.1656          0.0000          0.0000          0.0000
   0.9000          5.1087          5.1087          5.1087          0.0000          0.0000          0.0000
   0.9200          5.0457          5.0457          5.0457          0.0000          0.0000          0.0000
   0.9400          4.9772          4.9772          4.9772          0.0000          0.0000          0.0000
   0.9600          4.9037          4.9037          4.9037          0.0000          0.0000          0.0000
   0.9800          4.8261          4.8261          4.8261          0.0000          0.0000          0.0000
   1.0000          4.7455          4.7455          4.7455          0.0000          0.0000          0.0000
   1.0200          4.6630          4.6630          4.6630          0.0000          0.0000          0.0000
   1.0400          4.5796          4.5796          4.5796          0.0000          0.0000          0.0000
   1.0600          4.4965          4.4965          4.4965          0.0000          0.0000          0.0000
   1.0800          4.4147          4.4147          4.4147          0.0000          0.0000          0.0000
   1.1000          4.3349          4.3349          4.3349          0.0000          0.0000          0.0000
   1.1200          4.2578          4.2578          4.2578          0.0000          0.0000          0.0000
   1.1400          4.1839          4.1839          4.1839          0.0000          0.0000          0.0000
   1.1600          4.1135          4.1135          4.1135          0.0000          0.0000          0.0000
   1.1800          4.0466          4.0466          4.0466          0.0000          0.0000          0.0000
   1.2000          3.9834          3.9834          3.9834          0.0000          0.0000          0.0000
   1.2200          3.9237          3.9237          3.9237          0.0000          0.0000          0.0000
   1.2400          3.8672          3.8672          3.8672          0.0000          0.0000          0.0000
   1.2600          3.8138          3.8138          3.8138          0.0000          0.0000          0.0000
   1.2800          3.7633          3.7633          3.7633          0.0000          0.0000          0.0000
   1.3000          3.7153          3.7153          3.7153          0.0000          0.0000          0.0000
   1.3200          3.6696          3.6696          3.6696          0.0000          0.0000          0.0000
   1.3400          3.6262          3.6262          3.6262          0.0000          0.0000          0.0000
   1.3600          3.5847          3.5847          3.5847          0.0000          0.0000          0.0000
   1.3800          3.5451          3.5451          3.5451          0.0000          0.0000          0.0000
   1.4000          3.5073          3.5073          3.5073          0.0000          0.0000          0.0000
   1.4200          3.4713          3.4713          3.4713          0.0000          0.0000          0.0000
   1.4400          3.4372          3.4372          3.4372          0.0000          0.0000          0.0000
   1.4600          3.4048          3.4048          3.4048          0.0000          0.0000          0.0000
   1.4800          3.3745          3.3745          3.3745          0.0000          0.0000          0.0000
   1.5000          3.3463          3.3463          3.3463          0.0000          0.0000          0.0000
   1.5200          3.3204          3.3204          3.3204          0.0000          0.0000          0.0000
   1.5400          3.2969          3.2969          3.2969          0.0000          0.0000          0.0000
   1.5600          3.2761          3.2761          3.2761          0.0000          0.0000          0.0000
   1.5800          3.2581          3.2581          3.2581          0.0000          0.0000          0.0000
   1.6000          3.2429          3.2429          3.2429          0.0000          0.0000          0.0000
   1.6200          3.2308          3.2308          3.2308          0.0000          0.0000          0.0000
   1.6400          3.2217          3.2217          3.2217          0.0000          0.0000          0.0000
   1.6600          3.2155          3.2155          3.2155          0.0000          0.0000          0.0000
   1.6800          3.2121          3.2121          3.2121          0.0000          0.0000          0.0000
   1.7000          3.2112          3.2112          3.2112          0.0000          0.0000          0.0000
   1.7200          3.2126          3.2126          3.2126          0.0000          0.0000          0.0000
   1.7400          3.2157          3.2157          3.2157          0.0000          0.0000          0.0000
   1.7600          3.2203          3.2203          3.2203          0.0000          0.0000          0.0000
   1.7800          3.2257          3.2257          3.2257          0.0000          0.0000          0.0000
   1.8000          3.2314          3.2314          3.2314          0.0000          0.0000          0.0000
   1.8200          3.2371          3.2371          3.2371          0.0000          0.0000          0.0000
   1.8400          3.2424          3.2424          3.2424          0.0000          0.0000          0.0000
   1.8600          3.2468          3.2468          3.2468          0.0000          0.0000          0.0000
   1.8800          3.2502          3.2502          3.2502          0.0000          0.0000          0.0000
   1.9000          3.2527          3.2527          3.2527          0.0000          0.0000          0.0000
   1.9200          3.2542          3.2542          3.2542          0.0000          0.0000          0.0000
   1.9400          3.2552          3.2552          3.2552          0.0000          0.0000          0.0000
   1.9600          3.2561          3.2561          3.2561          0.0000          0.0000          0.0000
   1.9800          3.2575          3.2575          3.2575          0.0000          0.0000          0.0000
   2.0000          3.2603          3.2603          3.2603          0.0000          0.0000          0.0000
   2.0200          3.2653          3.2653          3.2653          0.0000          0.0000          0.0000
   2.0400          3.2737          3.2737          3.2737          0.0000          0.0000          0.0000
   2.0600          3.2863          3.2863          3.2863          0.0000          0.0000          0.0000
   2.0800          3.3042          3.3042          3.3042          0.0000          0.0000          0.0000
   2.1000          3.3285          3.3285          3.3285          0.0000          0.0000          0.0000
   2.1200          3.3600          3.3600          3.3600          0.0000          0.0000          0.0000
   2.1400          3.3993          3.3993          3.3993          0.0000          0.0000          0.0000
   2.1600          3.4471          3.4471          3.4471          0.0000          0.0000          0.0000
   2.1800          3.5037          3.5037          3.5037          0.0000          0.0000          0.0000
   2.2000          3.5692          3.5692          3.5692          0.0000          0.0000          0.0000
   2.2200          3.6436          3.6436          3.6436          0.0000          0.0000          0.0000
   2.2400          3.7265          3.7265          3.7265          0.0000          0.0000          0.0000
   2.2600          3.8175          3.8175          3.8175          0.0000          0.0000          0.0000
   2.2800          3.9161          3.9161          3.9161          0.0000          0.0000          0.0000
   2.3000          4.0216          4.0216          4.0216          0.0000          0.0000          0.0000
   2.3200          4.1333          4.1333          4.1333          0.0000          0.0000          0.0000
   2.3400          4.2507          4.2507          4.2507          0.0000          0.0000          0.0000
   2.3600          4.3731          4.3731          4.3731          0.0000          0.0000          0.0000
   2.3800          4.5001          4.5001          4.5001          0.0000          0.0000          0.0000
   2.4000          4.6315          4.6315          4.6315          0.0000          0.0000          0.0000
   2.4200          4.7669          4.7669          4.7669          0.0000          0.0000          0.0000
   2.4400          4.9063          4.9063          4.9063          0.0000          0.0000          0.0000
   2.4600          5.0498          5.0498          5.0498          0.0000          0.0000          0.0000
   2.4800          5.1973          5.1973          5.1973          0.0000          0.0000          0.0000
   2.5000          5.3490          5.3490          5.3490          0.0000          0.0000          0.0000
   2.5200          5.5050          5.5050          5.5050          0.0000          0.0000          0.0000
   2.5400          5.6652          5.6652          5.6652          0.0000          0.0000          0.0000
   2.5600          5.8297          5.8297          5.8297          0.0000          0.0000          0.0000
   2.5800          5.9982          5.9982          5.9982          0.0000          0.0000          0.0000
   2.6000          6.1704          6.1704          6.1704          0.0000          0.0000          0.0000
   2.6200          6.3461          6.3461          6.3461          0.0000          0.0000          0.0000
   2.6400          6.5246          6.5246          6.5246          0.0000          0.0000          0.0000
   2.6600          6.7056          6.7056          6.7056          0.0000          0.0000          0.0000
   2.6800          6.8883          6.8883          6.8883          0.0000          0.0000          0.0000
   2.7000          7.0720          7.0720          7.0720          0.0000          0.0000          0.0000
   2.7200          7.2559          7.2559          7.2559          0.0000          0.0000          0.0000
   2.7400          7.4392          7.4392          7.4392          0.0000          0.0000          0.0000
   2.7600          7.6208          7.6208          7.6208          0.0000          0.0000          0.0000
   2.7800          7.7997          7.7997          7.7997          0.0000          0.0000          0.0000
   2.8000          7.9747          7.9747          7.9747          0.0000          0.0000          0.0000
   2.8200          8.1444          8.1444          8.1444          0.0000          0.0000          0.0000
   2.8400          8.3074          8.3074          8.3074          0.0000          0.0000          0.0000
   2.8600          8.4622          8.4622          8.4622          0.0000          0.0000          0.0000
   2.8800          8.6073          8.6073          8.6073          0.0000          0.0000          0.0000
   2.9000          8.7413          8.7413          8.7413          0.0000          0.0000          0.0000
   2.9200          8.8627          8.8627          8.8627          0.0000          0.0000          0.0000
   2.9400          8.9705          8.9705          8.9705          0.0000          0.0000          0.0000
   2.9600          9.0640          9.0640          9.0640          0.0000          0.0000          0.0000
   2.9800          9.1428          9.1428          9.1428          0.0000          0.0000          0.0000
   3.0000          9.2070          9.2070          9.2070          0.0000          0.0000          0.0000
   3.0200          9.2571          9.2571          9.2571          0.0000          0.0000          0.0000
   3.0400          9.2944          9.2944          9.2944          0.0000          0.0000          0.0000
   3.0600          9.3200          9.3200          9.3200          0.0000          0.0000          0.0000
   3.0800          9.3359          9.3359          9.3359          0.0000          0.0000          0.0000
   3.1000          9.3440          9.3440          9.3440          0.0000          0.0000          0.0000
   3.1200          9.3460          9.3460          9.3460          0.0000          0.0000          0.0000
   3.1400          9.3439          9.3439          9.3439          0.0000          0.0000          0.0000
   3.1600          9.3392          9.3392          9.3392          0.0000          0.0000          0.0000
   3.1800          9.3329          9.3329          9.3329          0.0000          0.0000          0.0000
   3.2000          9.3257          9.3257          9.3257          0.0000          0.0000          0.0000
   3.2200          9.3178          9.3178          9.3178          0.0000          0.0000          0.0000
   3.2400          9.3088          9.3088          9.3088          0.0000          0.0000          0.0000
   3.2600          9.2979          9.2979          9.2979          0.0000          0.0000          0.0000
   3.2800          9.2841          9.2841          9.2841          0.0000          0.0000          0.0000
   3.3000          9.2660          9.2660          9.2660          0.0000          0.0000          0.0000
   3.3200          9.2423          9.2423          9.2423          0.0000          0.0000          0.0000
   3.3400          9.2119          9.2119          9.2119          0.0000          0.0000          0.0000
   3.3600          9.1737          9.1737          9.1737          0.0000          0.0000          0.0000
   3.3800          9.1272          9.1272          9.1272          0.0000          0.0000          0.0000
   3.4000          9.0720          9.0720          9.0720          0.0000          0.0000          0.0000
   3.4200          9.0084          9.0084          9.0084          0.0000          0.0000          0.0000
   3.4400          8.9368          8.9368          8.9368          0.0000          0.0000          0.0000
   3.4600          8.8581          8.8581          8.8581          0.0000          0.0000          0.0000
   3.4800          8.7732          8.7732          8.7732          0.0000          0.0000          0.0000
   3.5000          8.6833          8.6833          8.6833          0.0000          0.0000          0.0000
   3.5200          8.5896          8.5896          8.5896          0.0000          0.0000          0.0000
   3.5400          8.4931          8.4931          8.4931          0.0000          0.0000          0.0000
   3.5600          8.3946          8.3946          8.3946          0.0000          0.0000          0.0000
   3.5800          8.2948          8.2948          8.2948          0.0000          0.0000          0.0000
   3.6000          8.1943          8.1943          8.1943          0.0000          0.0000          0.0000
   3.6200          8.0932          8.0932          8.0932          0.0000          0.0000          0.0000
   3.6400          7.9915          7.9915          7.9915          0.0000          0.0000          0.0000
   3.6600          7.8894          7.8894          7.8894          0.0000          0.0000          0.0000
   3.6800          7.7865          7.7865          7.7865          0.0000          0.0000          0.0000
   3.7000          7.6828          7.6828          7.6828          0.0000          0.0000          0.0000
   3.7200          7.5783          7.5783          7.5783          0.0000          0.0000          0.0000
   3.7400          7.4730          7.4730          7.4730          0.0000          0.0000          0.0000
