### electron energy loss spectra
   0.0000          0.0003          0.0003          0.0003
   0.0200          0.0005          0.0005          0.0005
   0.0400          0.0011          0.0011          0.0011
   0.0600          0.0015          0.0015          0.0015
   0.0800          0.0020          0.0020          0.0020
   0.1000          0.0024          0.0024          0.0024
   0.1200          0.0027          0.0027          0.0027
   0.1400          0.0031          0.0031          0.0031
   0.1600          0.0034          0.0034          0.0034
   0.1800          0.0037          0.0037          0.0037
   0.2000          0.0040          0.0040          0.0040
   0.2200          0.0043          0.0043          0.0043
   0.2400          0.0046          0.0046          0.0046
   0.2600          0.0049          0.0049          0.0049
   0.2800          0.0052          0.0052          0.0052
   0.3000          0.0055          0.0055          0.0055
   0.3200          0.0059          0.0059          0.0059
   0.3400          0.0062          0.0062          0.0062
   0.3600          0.0066          0.0066          0.0066
   0.3800          0.0070          0.0070          0.0070
   0.4000          0.0074          0.0074          0.0074
   0.4200          0.0078          0.0078          0.0078
   0.4400          0.0082          0.0082          0.0082
   0.4600          0.0087          0.0087          0.0087
   0.4800          0.0092          0.0092          0.0092
   0.5000          0.0097          0.0097          0.0097
   0.5200          0.0102          0.0102          0.0102
   0.5400          0.0107          0.0107          0.0107
   0.5600          0.0112          0.0112          0.0112
   0.5800          0.0117          0.0117          0.0117
   0.6000          0.0122          0.0122          0.0122
   0.6200          0.0127          0.0127          0.0127
   0.6400          0.0132          0.0132          0.0132
   0.6600          0.0137          0.0137          0.0137
   0.6800          0.0142          0.0142          0.0142
   0.7000          0.0147          0.0147          0.0147
   0.7200          0.0152          0.0152          0.0152
   0.7400          0.0157          0.0157          0.0157
   0.7600          0.0161          0.0161          0.0161
   0.7800          0.0166          0.0166          0.0166
   0.8000          0.0171          0.0171          0.0171
   0.8200          0.0175          0.0175          0.0175
   0.8400          0.0180          0.0180          0.0180
   0.8600          0.0185          0.0185          0.0185
   0.8800          0.0190          0.0190          0.0190
   0.9000          0.0196          0.0196          0.0196
   0.9200          0.0201          0.0201          0.0201
   0.9400          0.0208          0.0208          0.0208
   0.9600          0.0214          0.0214          0.0214
   0.9800          0.0221          0.0221          0.0221
   1.0000          0.0228          0.0228          0.0228
   1.0200          0.0236          0.0236          0.0236
   1.0400          0.0244          0.0244          0.0244
   1.0600          0.0252          0.0252          0.0252
   1.0800          0.0261          0.0261          0.0261
   1.1000          0.0271          0.0271          0.0271
   1.1200          0.0280          0.0280          0.0280
   1.1400          0.0291          0.0291          0.0291
   1.1600          0.0301          0.0301          0.0301
   1.1800          0.0312          0.0312          0.0312
   1.2000          0.0324          0.0324          0.0324
   1.2200          0.0335          0.0335          0.0335
   1.2400          0.0347          0.0347          0.0347
   1.2600          0.0359          0.0359          0.0359
   1.2800          0.0372          0.0372          0.0372
   1.3000          0.0385          0.0385          0.0385
   1.3200          0.0398          0.0398          0.0398
   1.3400          0.0411          0.0411          0.0411
   1.3600          0.0425          0.0425          0.0425
   1.3800          0.0438          0.0438          0.0438
   1.4000          0.0452          0.0452          0.0452
   1.4200          0.0467          0.0467          0.0467
   1.4400          0.0481          0.0481          0.0481
   1.4600          0.0495          0.0495          0.0495
   1.4800          0.0510          0.0510          0.0510
   1.5000          0.0524          0.0524          0.0524
   1.5200          0.0539          0.0539          0.0539
   1.5400          0.0553          0.0553          0.0553
   1.5600          0.0567          0.0567          0.0567
   1.5800          0.0580          0.0580          0.0580
   1.6000          0.0592          0.0592          0.0592
   1.6200          0.0604          0.0604          0.0604
   1.6400          0.0614          0.0614          0.0614
   1.6600          0.0624          0.0624          0.0624
   1.6800          0.0632          0.0632          0.0632
   1.7000          0.0640          0.0640          0.0640
   1.7200          0.0646          0.0646          0.0646
   1.7400          0.0652          0.0652          0.0652
   1.7600          0.0657          0.0657          0.0657
   1.7800          0.0661          0.0661          0.0661
   1.8000          0.0665          0.0665          0.0665
   1.8200          0.0668          0.0668          0.0668
   1.8400          0.0671          0.0671          0.0671
   1.8600          0.0674          0.0674          0.0674
   1.8800          0.0676          0.0676          0.0676
   1.9000          0.0678          0.0678          0.0678
   1.9200          0.0679          0.0679          0.0679
   1.9400          0.0680          0.0680          0.0680
   1.9600          0.0680          0.0680          0.0680
   1.9800          0.0678          0.0678          0.0678
   2.0000          0.0676          0.0676          0.0676
   2.0200          0.0672          0.0672          0.0672
   2.0400          0.0666          0.0666          0.0666
   2.0600          0.0658          0.0658          0.0658
   2.0800          0.0648          0.0648          0.0648
   2.1000          0.0636          0.0636          0.0636
   2.1200          0.0623          0.0623          0.0623
   2.1400          0.0609          0.0609          0.0609
   2.1600          0.0594          0.0594          0.0594
   2.1800          0.0579          0.0579          0.0579
   2.2000          0.0563          0.0563          0.0563
   2.2200          0.0548          0.0548          0.0548
   2.2400          0.0534          0.0534          0.0534
   2.2600          0.0520          0.0520          0.0520
   2.2800          0.0507          0.0507          0.0507
   2.3000          0.0495          0.0495          0.0495
   2.3200          0.0484          0.0484          0.0484
   2.3400          0.0474          0.0474          0.0474
   2.3600          0.0465          0.0465          0.0465
   2.3800          0.0456          0.0456          0.0456
   2.4000          0.0448          0.0448          0.0448
   2.4200          0.0441          0.0441          0.0441
   2.4400          0.0435          0.0435          0.0435
   2.4600          0.0429          0.0429          0.0429
   2.4800          0.0423          0.0423          0.0423
   2.5000          0.0418          0.0418          0.0418
   2.5200          0.0414          0.0414          0.0414
   2.5400          0.0409          0.0409          0.0409
   2.5600          0.0405          0.0405          0.0405
   2.5800          0.0402          0.0402          0.0402
   2.6000          0.0398          0.0398          0.0398
   2.6200          0.0395          0.0395          0.0395
   2.6400          0.0392          0.0392          0.0392
   2.6600          0.0390          0.0390          0.0390
   2.6800          0.0388          0.0388          0.0388
   2.7000          0.0386          0.0386          0.0386
   2.7200          0.0384          0.0384          0.0384
   2.7400          0.0383          0.0383          0.0383
   2.7600          0.0381          0.0381          0.0381
   2.7800          0.0380          0.0380          0.0380
   2.8000          0.0380          0.0380          0.0380
   2.8200          0.0379          0.0379          0.0379
   2.8400          0.0379          0.0379          0.0379
   2.8600          0.0379          0.0379          0.0379
   2.8800          0.0380          0.0380          0.0380
   2.9000          0.0381          0.0381          0.0381
   2.9200          0.0382          0.0382          0.0382
   2.9400          0.0383          0.0383          0.0383
   2.9600          0.0384          0.0384          0.0384
   2.9800          0.0386          0.0386          0.0386
   3.0000          0.0388          0.0388          0.0388
   3.0200          0.0390          0.0390          0.0390
   3.0400          0.0393          0.0393          0.0393
   3.0600          0.0395          0.0395          0.0395
   3.0800          0.0398          0.0398          0.0398
   3.1000          0.0401          0.0401          0.0401
   3.1200          0.0404          0.0404          0.0404
   3.1400          0.0406          0.0406          0.0406
   3.1600          0.0409          0.0409          0.0409
   3.1800          0.0411          0.0411          0.0411
   3.2000          0.0414          0.0414          0.0414
   3.2200          0.0416          0.0416          0.0416
   3.2400          0.0418          0.0418          0.0418
   3.2600          0.0420          0.0420          0.0420
   3.2800          0.0422          0.0422          0.0422
   3.3000          0.0423          0.0423          0.0423
   3.3200          0.0425          0.0425          0.0425
   3.3400          0.0427          0.0427          0.0427
   3.3600          0.0429          0.0429          0.0429
   3.3800          0.0431          0.0431          0.0431
   3.4000          0.0433          0.0433          0.0433
   3.4200          0.0436          0.0436          0.0436
   3.4400          0.0438          0.0438          0.0438
   3.4600          0.0441          0.0441          0.0441
   3.4800          0.0444          0.0444          0.0444
   3.5000          0.0448          0.0448          0.0448
   3.5200          0.0451          0.0451          0.0451
   3.5400          0.0455          0.0455          0.0455
   3.5600          0.0459          0.0459          0.0459
   3.5800          0.0463          0.0463          0.0463
   3.6000          0.0467          0.0467          0.0467
   3.6200          0.0471          0.0471          0.0471
   3.6400          0.0475          0.0475          0.0475
   3.6600          0.0479          0.0479          0.0479
   3.6800          0.0484          0.0484          0.0484
   3.7000          0.0488          0.0488          0.0488
   3.7200          0.0493          0.0493          0.0493
   3.7400          0.0498          0.0498          0.0498
   3.7600          0.0504          0.0504          0.0504
   3.7800          0.0509          0.0509          0.0509
   3.8000          0.0515          0.0515          0.0515
   3.8200          0.0522          0.0522          0.0522
   3.8400          0.0528          0.0528          0.0528
   3.8600          0.0536          0.0536          0.0536
   3.8800          0.0543          0.0543          0.0543
   3.9000          0.0551          0.0551          0.0551
   3.9200          0.0559          0.0559          0.0559
   3.9400          0.0567          0.0567          0.0567
   3.9600          0.0575          0.0575          0.0575
   3.9800          0.0583          0.0583          0.0583
   4.0000          0.0591          0.0591          0.0591
   4.0200          0.0598          0.0598          0.0598
   4.0400          0.0605          0.0605          0.0605
   4.0600          0.0611          0.0611          0.0611
   4.0800          0.0615          0.0615          0.0615
   4.1000          0.0619          0.0619          0.0619
   4.1200          0.0622          0.0622          0.0622
   4.1400          0.0625          0.0625          0.0625
   4.1600          0.0626          0.0626          0.0626
   4.1800          0.0627          0.0627          0.0627
   4.2000          0.0627          0.0627          0.0627
   4.2200          0.0627          0.0627          0.0627
   4.2400          0.0627          0.0627          0.0627
   4.2600          0.0627          0.0627          0.0627
   4.2800          0.0627          0.0627          0.0627
   4.3000          0.0627          0.0627          0.0627
   4.3200          0.0628          0.0628          0.0628
   4.3400          0.0629          0.0629          0.0629
   4.3600          0.0630          0.0630          0.0630
   4.3800          0.0632          0.0632          0.0632
   4.4000          0.0635          0.0635          0.0635
   4.4200          0.0639          0.0639          0.0639
   4.4400          0.0643          0.0643          0.0643
   4.4600          0.0647          0.0647          0.0647
   4.4800          0.0653          0.0653          0.0653
   4.5000          0.0659          0.0659          0.0659
   4.5200          0.0666          0.0666          0.0666
   4.5400          0.0673          0.0673          0.0673
   4.5600          0.0681          0.0681          0.0681
   4.5800          0.0689          0.0689          0.0689
   4.6000          0.0698          0.0698          0.0698
   4.6200          0.0706          0.0706          0.0706
   4.6400          0.0715          0.0715          0.0715
   4.6600          0.0724          0.0724          0.0724
   4.6800          0.0734          0.0734          0.0734
   4.7000          0.0743          0.0743          0.0743
   4.7200          0.0752          0.0752          0.0752
   4.7400          0.0761          0.0761          0.0761
   4.7600          0.0770          0.0770          0.0770
   4.7800          0.0779          0.0779          0.0779
   4.8000          0.0787          0.0787          0.0787
   4.8200          0.0794          0.0794          0.0794
   4.8400          0.0801          0.0801          0.0801
   4.8600          0.0807          0.0807          0.0807
   4.8800          0.0813          0.0813          0.0813
   4.9000          0.0817          0.0817          0.0817
   4.9200          0.0820          0.0820          0.0820
   4.9400          0.0822          0.0822          0.0822
   4.9600          0.0824          0.0824          0.0824
   4.9800          0.0824          0.0824          0.0824
   5.0000          0.0824          0.0824          0.0824
   5.0200          0.0824          0.0824          0.0824
   5.0400          0.0823          0.0823          0.0823
   5.0600          0.0822          0.0822          0.0822
   5.0800          0.0821          0.0821          0.0821
   5.1000          0.0820          0.0820          0.0820
   5.1200          0.0819          0.0819          0.0819
   5.1400          0.0819          0.0819          0.0819
   5.1600          0.0820          0.0820          0.0820
   5.1800          0.0822          0.0822          0.0822
   5.2000          0.0824          0.0824          0.0824
   5.2200          0.0827          0.0827          0.0827
   5.2400          0.0832          0.0832          0.0832
   5.2600          0.0837          0.0837          0.0837
   5.2800          0.0844          0.0844          0.0844
   5.3000          0.0852          0.0852          0.0852
   5.3200          0.0861          0.0861          0.0861
   5.3400          0.0872          0.0872          0.0872
   5.3600          0.0884          0.0884          0.0884
   5.3800          0.0897          0.0897          0.0897
   5.4000          0.0912          0.0912          0.0912
   5.4200          0.0927          0.0927          0.0927
   5.4400          0.0944          0.0944          0.0944
   5.4600          0.0962          0.0962          0.0962
   5.4800          0.0981          0.0981          0.0981
   5.5000          0.1000          0.1000          0.1000
   5.5200          0.1020          0.1020          0.1020
   5.5400          0.1039          0.1039          0.1039
   5.5600          0.1059          0.1059          0.1059
   5.5800          0.1077          0.1077          0.1077
   5.6000          0.1095          0.1095          0.1095
   5.6200          0.1112          0.1112          0.1112
   5.6400          0.1127          0.1127          0.1127
   5.6600          0.1140          0.1140          0.1140
   5.6800          0.1151          0.1151          0.1151
   5.7000          0.1159          0.1159          0.1159
   5.7200          0.1166          0.1166          0.1166
   5.7400          0.1170          0.1170          0.1170
   5.7600          0.1173          0.1173          0.1173
   5.7800          0.1173          0.1173          0.1173
   5.8000          0.1172          0.1172          0.1172
   5.8200          0.1170          0.1170          0.1170
   5.8400          0.1166          0.1166          0.1166
   5.8600          0.1162          0.1162          0.1162
   5.8800          0.1158          0.1158          0.1158
   5.9000          0.1153          0.1153          0.1153
   5.9200          0.1149          0.1149          0.1149
   5.9400          0.1144          0.1144          0.1144
   5.9600          0.1141          0.1141          0.1141
   5.9800          0.1138          0.1138          0.1138
   6.0000          0.1136          0.1136          0.1136
   6.0200          0.1135          0.1135          0.1135
   6.0400          0.1134          0.1134          0.1134
   6.0600          0.1134          0.1134          0.1134
   6.0800          0.1135          0.1135          0.1135
   6.1000          0.1136          0.1136          0.1136
   6.1200          0.1138          0.1138          0.1138
   6.1400          0.1141          0.1141          0.1141
   6.1600          0.1143          0.1143          0.1143
   6.1800          0.1146          0.1146          0.1146
   6.2000          0.1149          0.1149          0.1149
   6.2200          0.1152          0.1152          0.1152
   6.2400          0.1155          0.1155          0.1155
   6.2600          0.1158          0.1158          0.1158
   6.2800          0.1162          0.1162          0.1162
   6.3000          0.1166          0.1166          0.1166
   6.3200          0.1170          0.1170          0.1170
   6.3400          0.1175          0.1175          0.1175
   6.3600          0.1181          0.1181          0.1181
   6.3800          0.1187          0.1187          0.1187
   6.4000          0.1195          0.1195          0.1195
   6.4200          0.1203          0.1203          0.1203
   6.4400          0.1212          0.1212          0.1212
   6.4600          0.1223          0.1223          0.1223
   6.4800          0.1234          0.1234          0.1234
   6.5000          0.1247          0.1247          0.1247
   6.5200          0.1261          0.1261          0.1261
   6.5400          0.1276          0.1276          0.1276
   6.5600          0.1292          0.1292          0.1292
   6.5800          0.1309          0.1309          0.1309
   6.6000          0.1326          0.1326          0.1326
   6.6200          0.1344          0.1344          0.1344
   6.6400          0.1363          0.1363          0.1363
   6.6600          0.1382          0.1382          0.1382
   6.6800          0.1401          0.1401          0.1401
   6.7000          0.1420          0.1420          0.1420
   6.7200          0.1439          0.1439          0.1439
   6.7400          0.1457          0.1457          0.1457
   6.7600          0.1474          0.1474          0.1474
   6.7800          0.1490          0.1490          0.1490
   6.8000          0.1505          0.1505          0.1505
   6.8200          0.1518          0.1518          0.1518
   6.8400          0.1530          0.1530          0.1530
   6.8600          0.1541          0.1541          0.1541
