### linear absorption coefficients(in units of 10^5 cm-1)
   0.0000          0.0000          0.0000          0.0000          0.0000          0.0000          0.0000
   0.0200          0.0001          0.0001          0.0001          0.0000          0.0000          0.0000
   0.0400          0.0003          0.0003          0.0003          0.0000          0.0000          0.0000
   0.0600          0.0006          0.0006          0.0006          0.0000          0.0000          0.0000
   0.0800          0.0009          0.0009          0.0009          0.0000          0.0000          0.0000
   0.1000          0.0013          0.0013          0.0013          0.0000          0.0000          0.0000
   0.1200          0.0017          0.0017          0.0017          0.0000          0.0000          0.0000
   0.1400          0.0020          0.0020          0.0020          0.0000          0.0000          0.0000
   0.1600          0.0023          0.0023          0.0023          0.0000          0.0000          0.0000
   0.1800          0.0026          0.0026          0.0026          0.0000          0.0000          0.0000
   0.2000          0.0027          0.0027          0.0027          0.0000          0.0000          0.0000
   0.2200          0.0029          0.0029          0.0029          0.0000          0.0000          0.0000
   0.2400          0.0031          0.0031          0.0031          0.0000          0.0000          0.0000
   0.2600          0.0032          0.0032          0.0032          0.0000          0.0000          0.0000
   0.2800          0.0034          0.0034          0.0034          0.0000          0.0000          0.0000
   0.3000          0.0036          0.0036          0.0036          0.0000          0.0000          0.0000
   0.3200          0.0038          0.0038          0.0038          0.0000          0.0000          0.0000
   0.3400          0.0040          0.0040          0.0040          0.0000          0.0000          0.0000
   0.3600          0.0043          0.0043          0.0043          0.0000          0.0000          0.0000
   0.3800          0.0046          0.0046          0.0046          0.0000          0.0000          0.0000
   0.4000          0.0049          0.0049          0.0049          0.0000          0.0000          0.0000
   0.4200          0.0052          0.0052          0.0052          0.0000          0.0000          0.0000
   0.4400          0.0056          0.0056          0.0056          0.0000          0.0000          0.0000
   0.4600          0.0060          0.0060          0.0060          0.0000          0.0000          0.0000
   0.4800          0.0065          0.0065          0.0065          0.0000          0.0000          0.0000
   0.5000          0.0069          0.0069          0.0069          0.0000          0.0000          0.0000
   0.5200          0.0074          0.0074          0.0074          0.0000          0.0000          0.0000
   0.5400          0.0079          0.0079          0.0079          0.0000          0.0000          0.0000
   0.5600          0.0085          0.0085          0.0085          0.0000          0.0000          0.0000
   0.5800          0.0090          0.0090          0.0090          0.0000          0.0000          0.0000
   0.6000          0.0096          0.0096          0.0096          0.0000          0.0000          0.0000
   0.6200          0.0102          0.0102          0.0102          0.0000          0.0000          0.0000
   0.6400          0.0109          0.0109          0.0109          0.0000          0.0000          0.0000
   0.6600          0.0115          0.0115          0.0115          0.0000          0.0000          0.0000
   0.6800          0.0122          0.0122          0.0122          0.0000          0.0000          0.0000
   0.7000          0.0130          0.0130          0.0130          0.0000          0.0000          0.0000
   0.7200          0.0137          0.0137          0.0137          0.0000          0.0000          0.0000
   0.7400          0.0145          0.0145          0.0145          0.0000          0.0000          0.0000
   0.7600          0.0153          0.0153          0.0153          0.0000          0.0000          0.0000
   0.7800          0.0161          0.0161          0.0161          0.0000          0.0000          0.0000
   0.8000          0.0170          0.0170          0.0170          0.0000          0.0000          0.0000
   0.8200          0.0179          0.0179          0.0179          0.0000          0.0000          0.0000
   0.8400          0.0188          0.0188          0.0188          0.0000          0.0000          0.0000
   0.8600          0.0198          0.0198          0.0198          0.0000          0.0000          0.0000
   0.8800          0.0208          0.0208          0.0208          0.0000          0.0000          0.0000
   0.9000          0.0219          0.0219          0.0219          0.0000          0.0000          0.0000
   0.9200          0.0229          0.0229          0.0229          0.0000          0.0000          0.0000
   0.9400          0.0240          0.0240          0.0240          0.0000          0.0000          0.0000
   0.9600          0.0252          0.0252          0.0252          0.0000          0.0000          0.0000
   0.9800          0.0264          0.0264          0.0264          0.0000          0.0000          0.0000
   1.0000          0.0276          0.0276          0.0276          0.0000          0.0000          0.0000
   1.0200          0.0289          0.0289          0.0289          0.0000          0.0000          0.0000
   1.0400          0.0302          0.0302          0.0302          0.0000          0.0000          0.0000
   1.0600          0.0315          0.0315          0.0315          0.0000          0.0000          0.0000
   1.0800          0.0329          0.0329          0.0329          0.0000          0.0000          0.0000
   1.1000          0.0344          0.0344          0.0344          0.0000          0.0000          0.0000
   1.1200          0.0359          0.0359          0.0359          0.0000          0.0000          0.0000
   1.1400          0.0374          0.0374          0.0374          0.0000          0.0000          0.0000
   1.1600          0.0390          0.0390          0.0390          0.0000          0.0000          0.0000
   1.1800          0.0406          0.0406          0.0406          0.0000          0.0000          0.0000
   1.2000          0.0423          0.0423          0.0423          0.0000          0.0000          0.0000
   1.2200          0.0441          0.0441          0.0441          0.0000          0.0000          0.0000
   1.2400          0.0459          0.0459          0.0459          0.0000          0.0000          0.0000
   1.2600          0.0477          0.0477          0.0477          0.0000          0.0000          0.0000
   1.2800          0.0496          0.0496          0.0496          0.0000          0.0000          0.0000
   1.3000          0.0516          0.0516          0.0516          0.0000          0.0000          0.0000
   1.3200          0.0537          0.0537          0.0537          0.0000          0.0000          0.0000
   1.3400          0.0558          0.0558          0.0558          0.0000          0.0000          0.0000
   1.3600          0.0580          0.0580          0.0580          0.0000          0.0000          0.0000
   1.3800          0.0603          0.0603          0.0603          0.0000          0.0000          0.0000
   1.4000          0.0626          0.0626          0.0626          0.0000          0.0000          0.0000
   1.4200          0.0650          0.0650          0.0650          0.0000          0.0000          0.0000
   1.4400          0.0675          0.0675          0.0675          0.0000          0.0000          0.0000
   1.4600          0.0701          0.0701          0.0701          0.0000          0.0000          0.0000
   1.4800          0.0728          0.0728          0.0728          0.0000          0.0000          0.0000
   1.5000          0.0755          0.0755          0.0755          0.0000          0.0000          0.0000
   1.5200          0.0784          0.0784          0.0784          0.0000          0.0000          0.0000
   1.5400          0.0814          0.0814          0.0814          0.0000          0.0000          0.0000
   1.5600          0.0845          0.0845          0.0845          0.0000          0.0000          0.0000
   1.5800          0.0876          0.0876          0.0876          0.0000          0.0000          0.0000
   1.6000          0.0909          0.0909          0.0909          0.0000          0.0000          0.0000
   1.6200          0.0944          0.0944          0.0944          0.0000          0.0000          0.0000
   1.6400          0.0979          0.0979          0.0979          0.0000          0.0000          0.0000
   1.6600          0.1016          0.1016          0.1016          0.0000          0.0000          0.0000
   1.6800          0.1055          0.1055          0.1055          0.0000          0.0000          0.0000
   1.7000          0.1094          0.1094          0.1094          0.0000          0.0000          0.0000
   1.7200          0.1136          0.1136          0.1136          0.0000          0.0000          0.0000
   1.7400          0.1179          0.1179          0.1179          0.0000          0.0000          0.0000
   1.7600          0.1224          0.1224          0.1224          0.0000          0.0000          0.0000
   1.7800          0.1271          0.1271          0.1271          0.0000          0.0000          0.0000
   1.8000          0.1319          0.1319          0.1319          0.0000          0.0000          0.0000
   1.8200          0.1370          0.1370          0.1370          0.0000          0.0000          0.0000
   1.8400          0.1423          0.1423          0.1423          0.0000          0.0000          0.0000
   1.8600          0.1479          0.1479          0.1479          0.0000          0.0000          0.0000
   1.8800          0.1537          0.1537          0.1537          0.0000          0.0000          0.0000
   1.9000          0.1597          0.1597          0.1597          0.0000          0.0000          0.0000
   1.9200          0.1661          0.1661          0.1661          0.0000          0.0000          0.0000
   1.9400          0.1727          0.1727          0.1727          0.0000          0.0000          0.0000
   1.9600          0.1797          0.1797          0.1797          0.0000          0.0000          0.0000
   1.9800          0.1871          0.1871          0.1871          0.0000          0.0000          0.0000
   2.0000          0.1948          0.1948          0.1948          0.0000          0.0000          0.0000
   2.0200          0.2030          0.2030          0.2030          0.0000          0.0000          0.0000
   2.0400          0.2116          0.2116          0.2116          0.0000          0.0000          0.0000
   2.0600          0.2207          0.2207          0.2207          0.0000          0.0000          0.0000
   2.0800          0.2303          0.2303          0.2303          0.0000          0.0000          0.0000
   2.1000          0.2406          0.2406          0.2406          0.0000          0.0000          0.0000
   2.1200          0.2514          0.2514          0.2514          0.0000          0.0000          0.0000
   2.1400          0.2630          0.2630          0.2630          0.0000          0.0000          0.0000
   2.1600          0.2753          0.2753          0.2753          0.0000          0.0000          0.0000
   2.1800          0.2886          0.2886          0.2886          0.0000          0.0000          0.0000
   2.2000          0.3027          0.3027          0.3027          0.0000          0.0000          0.0000
   2.2200          0.3180          0.3180          0.3180          0.0000          0.0000          0.0000
   2.2400          0.3345          0.3345          0.3345          0.0000          0.0000          0.0000
   2.2600          0.3523          0.3523          0.3523          0.0000          0.0000          0.0000
   2.2800          0.3717          0.3717          0.3717          0.0000          0.0000          0.0000
   2.3000          0.3930          0.3930          0.3930          0.0000          0.0000          0.0000
   2.3200          0.4163          0.4163          0.4163          0.0000          0.0000          0.0000
   2.3400          0.4421          0.4421          0.4421          0.0000          0.0000          0.0000
   2.3600          0.4708          0.4708          0.4708          0.0000          0.0000          0.0000
   2.3800          0.5028          0.5028          0.5028          0.0000          0.0000          0.0000
   2.4000          0.5388          0.5388          0.5388          0.0000          0.0000          0.0000
   2.4200          0.5796          0.5796          0.5796          0.0000          0.0000          0.0000
   2.4400          0.6261          0.6261          0.6261          0.0000          0.0000          0.0000
   2.4600          0.6792          0.6792          0.6792          0.0000          0.0000          0.0000
   2.4800          0.7401          0.7401          0.7401          0.0000          0.0000          0.0000
   2.5000          0.8101          0.8101          0.8101          0.0000          0.0000          0.0000
   2.5200          0.8905          0.8905          0.8905          0.0000          0.0000          0.0000
   2.5400          0.9827          0.9827          0.9827          0.0000          0.0000          0.0000
   2.5600          1.0882          1.0882          1.0882          0.0000          0.0000          0.0000
   2.5800          1.2082          1.2082          1.2082          0.0000          0.0000          0.0000
   2.6000          1.3441          1.3441          1.3441          0.0000          0.0000          0.0000
   2.6200          1.4969          1.4969          1.4969          0.0000          0.0000          0.0000
   2.6400          1.6673          1.6673          1.6673          0.0000          0.0000          0.0000
   2.6600          1.8554          1.8554          1.8554          0.0000          0.0000          0.0000
   2.6800          2.0606          2.0606          2.0606          0.0000          0.0000          0.0000
   2.7000          2.2817          2.2817          2.2817          0.0000          0.0000          0.0000
   2.7200          2.5163          2.5163          2.5163          0.0000          0.0000          0.0000
   2.7400          2.7613          2.7613          2.7613          0.0000          0.0000          0.0000
   2.7600          3.0128          3.0128          3.0128          0.0000          0.0000          0.0000
   2.7800          3.2665          3.2665          3.2665          0.0000          0.0000          0.0000
   2.8000          3.5182          3.5182          3.5182          0.0000          0.0000          0.0000
   2.8200          3.7640          3.7640          3.7640          0.0000          0.0000          0.0000
   2.8400          4.0007          4.0007          4.0007          0.0000          0.0000          0.0000
   2.8600          4.2259          4.2259          4.2259          0.0000          0.0000          0.0000
   2.8800          4.4380          4.4380          4.4380          0.0000          0.0000          0.0000
   2.9000          4.6363          4.6363          4.6363          0.0000          0.0000          0.0000
   2.9200          4.8209          4.8209          4.8209          0.0000          0.0000          0.0000
   2.9400          4.9924          4.9924          4.9924          0.0000          0.0000          0.0000
   2.9600          5.1520          5.1520          5.1520          0.0000          0.0000          0.0000
   2.9800          5.3014          5.3014          5.3014          0.0000          0.0000          0.0000
   3.0000          5.4427          5.4427          5.4427          0.0000          0.0000          0.0000
   3.0200          5.5785          5.5785          5.5785          0.0000          0.0000          0.0000
   3.0400          5.7117          5.7117          5.7117          0.0000          0.0000          0.0000
   3.0600          5.8453          5.8453          5.8453          0.0000          0.0000          0.0000
   3.0800          5.9819          5.9819          5.9819          0.0000          0.0000          0.0000
   3.1000          6.1233          6.1233          6.1233          0.0000          0.0000          0.0000
   3.1200          6.2705          6.2705          6.2705          0.0000          0.0000          0.0000
   3.1400          6.4228          6.4228          6.4228          0.0000          0.0000          0.0000
   3.1600          6.5786          6.5786          6.5786          0.0000          0.0000          0.0000
   3.1800          6.7348          6.7348          6.7348          0.0000          0.0000          0.0000
   3.2000          6.8882          6.8882          6.8882          0.0000          0.0000          0.0000
   3.2200          7.0357          7.0357          7.0357          0.0000          0.0000          0.0000
   3.2400          7.1750          7.1750          7.1750          0.0000          0.0000          0.0000
   3.2600          7.3060          7.3060          7.3060          0.0000          0.0000          0.0000
   3.2800          7.4305          7.4305          7.4305          0.0000          0.0000          0.0000
   3.3000          7.5523          7.5523          7.5523          0.0000          0.0000          0.0000
   3.3200          7.6767          7.6767          7.6767          0.0000          0.0000          0.0000
   3.3400          7.8098          7.8098          7.8098          0.0000          0.0000          0.0000
   3.3600          7.9574          7.9574          7.9574          0.0000          0.0000          0.0000
   3.3800          8.1240          8.1240          8.1240          0.0000          0.0000          0.0000
   3.4000          8.3131          8.3131          8.3131          0.0000          0.0000          0.0000
   3.4200          8.5265          8.5265          8.5265          0.0000          0.0000          0.0000
   3.4400          8.7653          8.7653          8.7653          0.0000          0.0000          0.0000
   3.4600          9.0299          9.0299          9.0299          0.0000          0.0000          0.0000
   3.4800          9.3206          9.3206          9.3206          0.0000          0.0000          0.0000
   3.5000          9.6382          9.6382          9.6382          0.0000          0.0000          0.0000
   3.5200          9.9835          9.9835          9.9835          0.0000          0.0000          0.0000
   3.5400         10.3577         10.3577         10.3577          0.0000          0.0000          0.0000
   3.5600         10.7620         10.7620         10.7620          0.0000          0.0000          0.0000
   3.5800         11.1975         11.1975         11.1975          0.0000          0.0000          0.0000
   3.6000         11.6647         11.6647         11.6647          0.0000          0.0000          0.0000
   3.6200         12.1630         12.1630         12.1630          0.0000          0.0000          0.0000
   3.6400         12.6905         12.6905         12.6905          0.0000          0.0000          0.0000
   3.6600         13.2434         13.2434         13.2434          0.0000          0.0000          0.0000
   3.6800         13.8161         13.8161         13.8161          0.0000          0.0000          0.0000
   3.7000         14.4008         14.4008         14.4008          0.0000          0.0000          0.0000
   3.7200         14.9881         14.9881         14.9881          0.0000          0.0000          0.0000
   3.7400         15.5675         15.5675         15.5675          0.0000          0.0000          0.0000
