### imag part of conductivity (in units of 10^15 sec^-1)
   0.0000          3.2898          3.2898          3.2898          0.0000          0.0000          0.0000
   0.0200          3.2572          3.2572          3.2572          0.0000          0.0000          0.0000
   0.0400          3.2246          3.2246          3.2246          0.0000          0.0000          0.0000
   0.0600          3.1920          3.1920          3.1920          0.0000          0.0000          0.0000
   0.0800          3.1596          3.1596          3.1596          0.0000          0.0000          0.0000
   0.1000          3.1272          3.1272          3.1272          0.0000          0.0000          0.0000
   0.1200          3.0949          3.0949          3.0949          0.0000          0.0000          0.0000
   0.1400          3.0625          3.0625          3.0625          0.0000          0.0000          0.0000
   0.1600          3.0302          3.0302          3.0302          0.0000          0.0000          0.0000
   0.1800          2.9979          2.9979          2.9979          0.0000          0.0000          0.0000
   0.2000          2.9655          2.9655          2.9655          0.0000          0.0000          0.0000
   0.2200          2.9330          2.9330          2.9330          0.0000          0.0000          0.0000
   0.2400          2.9005          2.9005          2.9005          0.0000          0.0000          0.0000
   0.2600          2.8678          2.8678          2.8678          0.0000          0.0000          0.0000
   0.2800          2.8351          2.8351          2.8351          0.0000          0.0000          0.0000
   0.3000          2.8023          2.8023          2.8023          0.0000          0.0000          0.0000
   0.3200          2.7694          2.7694          2.7694          0.0000          0.0000          0.0000
   0.3400          2.7364          2.7364          2.7364          0.0000          0.0000          0.0000
   0.3600          2.7033          2.7033          2.7033          0.0000          0.0000          0.0000
   0.3800          2.6700          2.6700          2.6700          0.0000          0.0000          0.0000
   0.4000          2.6367          2.6367          2.6367          0.0000          0.0000          0.0000
   0.4200          2.6033          2.6033          2.6033          0.0000          0.0000          0.0000
   0.4400          2.5698          2.5698          2.5698          0.0000          0.0000          0.0000
   0.4600          2.5361          2.5361          2.5361          0.0000          0.0000          0.0000
   0.4800          2.5023          2.5023          2.5023          0.0000          0.0000          0.0000
   0.5000          2.4684          2.4684          2.4684          0.0000          0.0000          0.0000
   0.5200          2.4344          2.4344          2.4344          0.0000          0.0000          0.0000
   0.5400          2.4002          2.4002          2.4002          0.0000          0.0000          0.0000
   0.5600          2.3659          2.3659          2.3659          0.0000          0.0000          0.0000
   0.5800          2.3314          2.3314          2.3314          0.0000          0.0000          0.0000
   0.6000          2.2968          2.2968          2.2968          0.0000          0.0000          0.0000
   0.6200          2.2620          2.2620          2.2620          0.0000          0.0000          0.0000
   0.6400          2.2270          2.2270          2.2270          0.0000          0.0000          0.0000
   0.6600          2.1919          2.1919          2.1919          0.0000          0.0000          0.0000
   0.6800          2.1565          2.1565          2.1565          0.0000          0.0000          0.0000
   0.7000          2.1210          2.1210          2.1210          0.0000          0.0000          0.0000
   0.7200          2.0853          2.0853          2.0853          0.0000          0.0000          0.0000
   0.7400          2.0494          2.0494          2.0494          0.0000          0.0000          0.0000
   0.7600          2.0132          2.0132          2.0132          0.0000          0.0000          0.0000
   0.7800          1.9768          1.9768          1.9768          0.0000          0.0000          0.0000
   0.8000          1.9402          1.9402          1.9402          0.0000          0.0000          0.0000
   0.8200          1.9034          1.9034          1.9034          0.0000          0.0000          0.0000
   0.8400          1.8663          1.8663          1.8663          0.0000          0.0000          0.0000
   0.8600          1.8290          1.8290          1.8290          0.0000          0.0000          0.0000
   0.8800          1.7914          1.7914          1.7914          0.0000          0.0000          0.0000
   0.9000          1.7535          1.7535          1.7535          0.0000          0.0000          0.0000
   0.9200          1.7153          1.7153          1.7153          0.0000          0.0000          0.0000
   0.9400          1.6769          1.6769          1.6769          0.0000          0.0000          0.0000
   0.9600          1.6381          1.6381          1.6381          0.0000          0.0000          0.0000
   0.9800          1.5991          1.5991          1.5991          0.0000          0.0000          0.0000
   1.0000          1.5597          1.5597          1.5597          0.0000          0.0000          0.0000
   1.0200          1.5200          1.5200          1.5200          0.0000          0.0000          0.0000
   1.0400          1.4799          1.4799          1.4799          0.0000          0.0000          0.0000
   1.0600          1.4395          1.4395          1.4395          0.0000          0.0000          0.0000
   1.0800          1.3987          1.3987          1.3987          0.0000          0.0000          0.0000
   1.1000          1.3576          1.3576          1.3576          0.0000          0.0000          0.0000
   1.1200          1.3160          1.3160          1.3160          0.0000          0.0000          0.0000
   1.1400          1.2741          1.2741          1.2741          0.0000          0.0000          0.0000
   1.1600          1.2317          1.2317          1.2317          0.0000          0.0000          0.0000
   1.1800          1.1890          1.1890          1.1890          0.0000          0.0000          0.0000
   1.2000          1.1457          1.1457          1.1457          0.0000          0.0000          0.0000
   1.2200          1.1021          1.1021          1.1021          0.0000          0.0000          0.0000
   1.2400          1.0579          1.0579          1.0579          0.0000          0.0000          0.0000
   1.2600          1.0133          1.0133          1.0133          0.0000          0.0000          0.0000
   1.2800          0.9681          0.9681          0.9681          0.0000          0.0000          0.0000
   1.3000          0.9225          0.9225          0.9225          0.0000          0.0000          0.0000
   1.3200          0.8763          0.8763          0.8763          0.0000          0.0000          0.0000
   1.3400          0.8295          0.8295          0.8295          0.0000          0.0000          0.0000
   1.3600          0.7822          0.7822          0.7822          0.0000          0.0000          0.0000
   1.3800          0.7343          0.7343          0.7343          0.0000          0.0000          0.0000
   1.4000          0.6858          0.6858          0.6858          0.0000          0.0000          0.0000
   1.4200          0.6366          0.6366          0.6366          0.0000          0.0000          0.0000
   1.4400          0.5868          0.5868          0.5868          0.0000          0.0000          0.0000
   1.4600          0.5363          0.5363          0.5363          0.0000          0.0000          0.0000
   1.4800          0.4851          0.4851          0.4851          0.0000          0.0000          0.0000
   1.5000          0.4332          0.4332          0.4332          0.0000          0.0000          0.0000
   1.5200          0.3805          0.3805          0.3805          0.0000          0.0000          0.0000
   1.5400          0.3270          0.3270          0.3270          0.0000          0.0000          0.0000
   1.5600          0.2728          0.2728          0.2728          0.0000          0.0000          0.0000
   1.5800          0.2177          0.2177          0.2177          0.0000          0.0000          0.0000
   1.6000          0.1617          0.1617          0.1617          0.0000          0.0000          0.0000
   1.6200          0.1048          0.1048          0.1048          0.0000          0.0000          0.0000
   1.6400          0.0470          0.0470          0.0470          0.0000          0.0000          0.0000
   1.6600         -0.0117         -0.0117         -0.0117          0.0000          0.0000          0.0000
   1.6800         -0.0715         -0.0715         -0.0715          0.0000          0.0000          0.0000
   1.7000         -0.1324         -0.1324         -0.1324          0.0000          0.0000          0.0000
   1.7200         -0.1943         -0.1943         -0.1943          0.0000          0.0000          0.0000
   1.7400         -0.2573         -0.2573         -0.2573          0.0000          0.0000          0.0000
   1.7600         -0.3216         -0.3216         -0.3216          0.0000          0.0000          0.0000
   1.7800         -0.3871         -0.3871         -0.3871          0.0000          0.0000          0.0000
   1.8000         -0.4538         -0.4538         -0.4538          0.0000          0.0000          0.0000
   1.8200         -0.5220         -0.5220         -0.5220          0.0000          0.0000          0.0000
   1.8400         -0.5915         -0.5915         -0.5915          0.0000          0.0000          0.0000
   1.8600         -0.6624         -0.6624         -0.6624          0.0000          0.0000          0.0000
   1.8800         -0.7349         -0.7349         -0.7349          0.0000          0.0000          0.0000
   1.9000         -0.8090         -0.8090         -0.8090          0.0000          0.0000          0.0000
   1.9200         -0.8848         -0.8848         -0.8848          0.0000          0.0000          0.0000
   1.9400         -0.9623         -0.9623         -0.9623          0.0000          0.0000          0.0000
   1.9600         -1.0417         -1.0417         -1.0417          0.0000          0.0000          0.0000
   1.9800         -1.1230         -1.1230         -1.1230          0.0000          0.0000          0.0000
   2.0000         -1.2064         -1.2064         -1.2064          0.0000          0.0000          0.0000
   2.0200         -1.2919         -1.2919         -1.2919          0.0000          0.0000          0.0000
   2.0400         -1.3796         -1.3796         -1.3796          0.0000          0.0000          0.0000
   2.0600         -1.4698         -1.4698         -1.4698          0.0000          0.0000          0.0000
   2.0800         -1.5624         -1.5624         -1.5624          0.0000          0.0000          0.0000
   2.1000         -1.6578         -1.6578         -1.6578          0.0000          0.0000          0.0000
   2.1200         -1.7559         -1.7559         -1.7559          0.0000          0.0000          0.0000
   2.1400         -1.8571         -1.8571         -1.8571          0.0000          0.0000          0.0000
   2.1600         -1.9614         -1.9614         -1.9614          0.0000          0.0000          0.0000
   2.1800         -2.0692         -2.0692         -2.0692          0.0000          0.0000          0.0000
   2.2000         -2.1805         -2.1805         -2.1805          0.0000          0.0000          0.0000
   2.2200         -2.2958         -2.2958         -2.2958          0.0000          0.0000          0.0000
   2.2400         -2.4152         -2.4152         -2.4152          0.0000          0.0000          0.0000
   2.2600         -2.5390         -2.5390         -2.5390          0.0000          0.0000          0.0000
   2.2800         -2.6676         -2.6676         -2.6676          0.0000          0.0000          0.0000
   2.3000         -2.8013         -2.8013         -2.8013          0.0000          0.0000          0.0000
   2.3200         -2.9406         -2.9406         -2.9406          0.0000          0.0000          0.0000
   2.3400         -3.0858         -3.0858         -3.0858          0.0000          0.0000          0.0000
   2.3600         -3.2373         -3.2373         -3.2373          0.0000          0.0000          0.0000
   2.3800         -3.3957         -3.3957         -3.3957          0.0000          0.0000          0.0000
   2.4000         -3.5612         -3.5612         -3.5612          0.0000          0.0000          0.0000
   2.4200         -3.7344         -3.7344         -3.7344          0.0000          0.0000          0.0000
   2.4400         -3.9155         -3.9155         -3.9155          0.0000          0.0000          0.0000
   2.4600         -4.1046         -4.1046         -4.1046          0.0000          0.0000          0.0000
   2.4800         -4.3018         -4.3018         -4.3018          0.0000          0.0000          0.0000
   2.5000         -4.5066         -4.5066         -4.5066          0.0000          0.0000          0.0000
   2.5200         -4.7184         -4.7184         -4.7184          0.0000          0.0000          0.0000
   2.5400         -4.9362         -4.9362         -4.9362          0.0000          0.0000          0.0000
   2.5600         -5.1584         -5.1584         -5.1584          0.0000          0.0000          0.0000
   2.5800         -5.3828         -5.3828         -5.3828          0.0000          0.0000          0.0000
   2.6000         -5.6067         -5.6067         -5.6067          0.0000          0.0000          0.0000
   2.6200         -5.8267         -5.8267         -5.8267          0.0000          0.0000          0.0000
   2.6400         -6.0386         -6.0386         -6.0386          0.0000          0.0000          0.0000
   2.6600         -6.2376         -6.2376         -6.2376          0.0000          0.0000          0.0000
   2.6800         -6.4186         -6.4186         -6.4186          0.0000          0.0000          0.0000
   2.7000         -6.5763         -6.5763         -6.5763          0.0000          0.0000          0.0000
   2.7200         -6.7062         -6.7062         -6.7062          0.0000          0.0000          0.0000
   2.7400         -6.8045         -6.8045         -6.8045          0.0000          0.0000          0.0000
   2.7600         -6.8692         -6.8692         -6.8692          0.0000          0.0000          0.0000
   2.7800         -6.9002         -6.9002         -6.9002          0.0000          0.0000          0.0000
   2.8000         -6.8995         -6.8995         -6.8995          0.0000          0.0000          0.0000
   2.8200         -6.8706         -6.8706         -6.8706          0.0000          0.0000          0.0000
   2.8400         -6.8186         -6.8186         -6.8186          0.0000          0.0000          0.0000
   2.8600         -6.7490         -6.7490         -6.7490          0.0000          0.0000          0.0000
   2.8800         -6.6677         -6.6677         -6.6677          0.0000          0.0000          0.0000
   2.9000         -6.5801         -6.5801         -6.5801          0.0000          0.0000          0.0000
   2.9200         -6.4915         -6.4915         -6.4915          0.0000          0.0000          0.0000
   2.9400         -6.4059         -6.4059         -6.4059          0.0000          0.0000          0.0000
   2.9600         -6.3270         -6.3270         -6.3270          0.0000          0.0000          0.0000
   2.9800         -6.2577         -6.2577         -6.2577          0.0000          0.0000          0.0000
   3.0000         -6.1996         -6.1996         -6.1996          0.0000          0.0000          0.0000
   3.0200         -6.1536         -6.1536         -6.1536          0.0000          0.0000          0.0000
   3.0400         -6.1194         -6.1194         -6.1194          0.0000          0.0000          0.0000
   3.0600         -6.0951         -6.0951         -6.0951          0.0000          0.0000          0.0000
   3.0800         -6.0778         -6.0778         -6.0778          0.0000          0.0000          0.0000
   3.1000         -6.0638         -6.0638         -6.0638          0.0000          0.0000          0.0000
   3.1200         -6.0491         -6.0491         -6.0491          0.0000          0.0000          0.0000
   3.1400         -6.0302         -6.0302         -6.0302          0.0000          0.0000          0.0000
   3.1600         -6.0051         -6.0051         -6.0051          0.0000          0.0000          0.0000
   3.1800         -5.9736         -5.9736         -5.9736          0.0000          0.0000          0.0000
   3.2000         -5.9381         -5.9381         -5.9381          0.0000          0.0000          0.0000
   3.2200         -5.9030         -5.9030         -5.9030          0.0000          0.0000          0.0000
   3.2400         -5.8745         -5.8745         -5.8745          0.0000          0.0000          0.0000
   3.2600         -5.8588         -5.8588         -5.8588          0.0000          0.0000          0.0000
   3.2800         -5.8615         -5.8615         -5.8615          0.0000          0.0000          0.0000
   3.3000         -5.8860         -5.8860         -5.8860          0.0000          0.0000          0.0000
   3.3200         -5.9326         -5.9326         -5.9326          0.0000          0.0000          0.0000
   3.3400         -5.9988         -5.9988         -5.9988          0.0000          0.0000          0.0000
   3.3600         -6.0796         -6.0796         -6.0796          0.0000          0.0000          0.0000
   3.3800         -6.1683         -6.1683         -6.1683          0.0000          0.0000          0.0000
   3.4000         -6.2579         -6.2579         -6.2579          0.0000          0.0000          0.0000
   3.4200         -6.3415         -6.3415         -6.3415          0.0000          0.0000          0.0000
   3.4400         -6.4132         -6.4132         -6.4132          0.0000          0.0000          0.0000
   3.4600         -6.4677         -6.4677         -6.4677          0.0000          0.0000          0.0000
   3.4800         -6.5004         -6.5004         -6.5004          0.0000          0.0000          0.0000
   3.5000         -6.5064         -6.5064         -6.5064          0.0000          0.0000          0.0000
   3.5200         -6.4805         -6.4805         -6.4805          0.0000          0.0000          0.0000
   3.5400         -6.4163         -6.4163         -6.4163          0.0000          0.0000          0.0000
   3.5600         -6.3064         -6.3064         -6.3064          0.0000          0.0000          0.0000
   3.5800         -6.1420         -6.1420         -6.1420          0.0000          0.0000          0.0000
   3.6000         -5.9134         -5.9134         -5.9134          0.0000          0.0000          0.0000
   3.6200         -5.6103         -5.6103         -5.6103          0.0000          0.0000          0.0000
   3.6400         -5.2227         -5.2227         -5.2227          0.0000          0.0000          0.0000
   3.6600         -4.7425         -4.7425         -4.7425          0.0000          0.0000          0.0000
   3.6800         -4.1644         -4.1644         -4.1644          0.0000          0.0000          0.0000
   3.7000         -3.4876         -3.4876         -3.4876          0.0000          0.0000          0.0000
   3.7200         -2.7171         -2.7171         -2.7171          0.0000          0.0000          0.0000
   3.7400         -1.8635         -1.8635         -1.8635          0.0000          0.0000          0.0000
