### electron energy loss spectra
   0.0000          0.0000          0.0000          0.0000
   0.0200          0.0001          0.0001          0.0001
   0.0400          0.0003          0.0003          0.0003
   0.0600          0.0004          0.0004          0.0004
   0.0800          0.0005          0.0005          0.0005
   0.1000          0.0005          0.0005          0.0005
   0.1200          0.0006          0.0006          0.0006
   0.1400          0.0006          0.0006          0.0006
   0.1600          0.0006          0.0006          0.0006
   0.1800          0.0006          0.0006          0.0006
   0.2000          0.0006          0.0006          0.0006
   0.2200          0.0005          0.0005          0.0005
   0.2400          0.0005          0.0005          0.0005
   0.2600          0.0005          0.0005          0.0005
   0.2800          0.0005          0.0005          0.0005
   0.3000          0.0005          0.0005          0.0005
   0.3200          0.0005          0.0005          0.0005
   0.3400          0.0005          0.0005          0.0005
   0.3600          0.0005          0.0005          0.0005
   0.3800          0.0005          0.0005          0.0005
   0.4000          0.0005          0.0005          0.0005
   0.4200          0.0005          0.0005          0.0005
   0.4400          0.0005          0.0005          0.0005
   0.4600          0.0005          0.0005          0.0005
   0.4800          0.0005          0.0005          0.0005
   0.5000          0.0005          0.0005          0.0005
   0.5200          0.0006          0.0006          0.0006
   0.5400          0.0006          0.0006          0.0006
   0.5600          0.0006          0.0006          0.0006
   0.5800          0.0006          0.0006          0.0006
   0.6000          0.0006          0.0006          0.0006
   0.6200          0.0006          0.0006          0.0006
   0.6400          0.0007          0.0007          0.0007
   0.6600          0.0007          0.0007          0.0007
   0.6800          0.0007          0.0007          0.0007
   0.7000          0.0007          0.0007          0.0007
   0.7200          0.0007          0.0007          0.0007
   0.7400          0.0007          0.0007          0.0007
   0.7600          0.0008          0.0008          0.0008
   0.7800          0.0008          0.0008          0.0008
   0.8000          0.0008          0.0008          0.0008
   0.8200          0.0008          0.0008          0.0008
   0.8400          0.0008          0.0008          0.0008
   0.8600          0.0009          0.0009          0.0009
   0.8800          0.0009          0.0009          0.0009
   0.9000          0.0009          0.0009          0.0009
   0.9200          0.0009          0.0009          0.0009
   0.9400          0.0009          0.0009          0.0009
   0.9600          0.0010          0.0010          0.0010
   0.9800          0.0010          0.0010          0.0010
   1.0000          0.0010          0.0010          0.0010
   1.0200          0.0010          0.0010          0.0010
   1.0400          0.0010          0.0010          0.0010
   1.0600          0.0011          0.0011          0.0011
   1.0800          0.0011          0.0011          0.0011
   1.1000          0.0011          0.0011          0.0011
   1.1200          0.0011          0.0011          0.0011
   1.1400          0.0012          0.0012          0.0012
   1.1600          0.0012          0.0012          0.0012
   1.1800          0.0012          0.0012          0.0012
   1.2000          0.0012          0.0012          0.0012
   1.2200          0.0012          0.0012          0.0012
   1.2400          0.0013          0.0013          0.0013
   1.2600          0.0013          0.0013          0.0013
   1.2800          0.0013          0.0013          0.0013
   1.3000          0.0013          0.0013          0.0013
   1.3200          0.0014          0.0014          0.0014
   1.3400          0.0014          0.0014          0.0014
   1.3600          0.0014          0.0014          0.0014
   1.3800          0.0014          0.0014          0.0014
   1.4000          0.0015          0.0015          0.0015
   1.4200          0.0015          0.0015          0.0015
   1.4400          0.0015          0.0015          0.0015
   1.4600          0.0015          0.0015          0.0015
   1.4800          0.0016          0.0016          0.0016
   1.5000          0.0016          0.0016          0.0016
   1.5200          0.0016          0.0016          0.0016
   1.5400          0.0016          0.0016          0.0016
   1.5600          0.0017          0.0017          0.0017
   1.5800          0.0017          0.0017          0.0017
   1.6000          0.0017          0.0017          0.0017
   1.6200          0.0018          0.0018          0.0018
   1.6400          0.0018          0.0018          0.0018
   1.6600          0.0018          0.0018          0.0018
   1.6800          0.0018          0.0018          0.0018
   1.7000          0.0019          0.0019          0.0019
   1.7200          0.0019          0.0019          0.0019
   1.7400          0.0019          0.0019          0.0019
   1.7600          0.0020          0.0020          0.0020
   1.7800          0.0020          0.0020          0.0020
   1.8000          0.0020          0.0020          0.0020
   1.8200          0.0021          0.0021          0.0021
   1.8400          0.0021          0.0021          0.0021
   1.8600          0.0021          0.0021          0.0021
   1.8800          0.0022          0.0022          0.0022
   1.9000          0.0022          0.0022          0.0022
   1.9200          0.0022          0.0022          0.0022
   1.9400          0.0023          0.0023          0.0023
   1.9600          0.0023          0.0023          0.0023
   1.9800          0.0024          0.0024          0.0024
   2.0000          0.0024          0.0024          0.0024
   2.0200          0.0024          0.0024          0.0024
   2.0400          0.0025          0.0025          0.0025
   2.0600          0.0025          0.0025          0.0025
   2.0800          0.0026          0.0026          0.0026
   2.1000          0.0026          0.0026          0.0026
   2.1200          0.0027          0.0027          0.0027
   2.1400          0.0027          0.0027          0.0027
   2.1600          0.0028          0.0028          0.0028
   2.1800          0.0028          0.0028          0.0028
   2.2000          0.0029          0.0029          0.0029
   2.2200          0.0030          0.0030          0.0030
   2.2400          0.0030          0.0030          0.0030
   2.2600          0.0031          0.0031          0.0031
   2.2800          0.0032          0.0032          0.0032
   2.3000          0.0033          0.0033          0.0033
   2.3200          0.0034          0.0034          0.0034
   2.3400          0.0035          0.0035          0.0035
   2.3600          0.0036          0.0036          0.0036
   2.3800          0.0037          0.0037          0.0037
   2.4000          0.0038          0.0038          0.0038
   2.4200          0.0040          0.0040          0.0040
   2.4400          0.0042          0.0042          0.0042
   2.4600          0.0043          0.0043          0.0043
   2.4800          0.0046          0.0046          0.0046
   2.5000          0.0048          0.0048          0.0048
   2.5200          0.0051          0.0051          0.0051
   2.5400          0.0054          0.0054          0.0054
   2.5600          0.0058          0.0058          0.0058
   2.5800          0.0061          0.0061          0.0061
   2.6000          0.0066          0.0066          0.0066
   2.6200          0.0070          0.0070          0.0070
   2.6400          0.0075          0.0075          0.0075
   2.6600          0.0081          0.0081          0.0081
   2.6800          0.0087          0.0087          0.0087
   2.7000          0.0093          0.0093          0.0093
   2.7200          0.0099          0.0099          0.0099
   2.7400          0.0106          0.0106          0.0106
   2.7600          0.0113          0.0113          0.0113
   2.7800          0.0120          0.0120          0.0120
   2.8000          0.0127          0.0127          0.0127
   2.8200          0.0134          0.0134          0.0134
   2.8400          0.0140          0.0140          0.0140
   2.8600          0.0147          0.0147          0.0147
   2.8800          0.0153          0.0153          0.0153
   2.9000          0.0159          0.0159          0.0159
   2.9200          0.0165          0.0165          0.0165
   2.9400          0.0170          0.0170          0.0170
   2.9600          0.0175          0.0175          0.0175
   2.9800          0.0179          0.0179          0.0179
   3.0000          0.0183          0.0183          0.0183
   3.0200          0.0186          0.0186          0.0186
   3.0400          0.0189          0.0189          0.0189
   3.0600          0.0192          0.0192          0.0192
   3.0800          0.0195          0.0195          0.0195
   3.1000          0.0197          0.0197          0.0197
   3.1200          0.0200          0.0200          0.0200
   3.1400          0.0202          0.0202          0.0202
   3.1600          0.0204          0.0204          0.0204
   3.1800          0.0207          0.0207          0.0207
   3.2000          0.0209          0.0209          0.0209
   3.2200          0.0212          0.0212          0.0212
   3.2400          0.0214          0.0214          0.0214
   3.2600          0.0215          0.0215          0.0215
   3.2800          0.0217          0.0217          0.0217
   3.3000          0.0217          0.0217          0.0217
   3.3200          0.0217          0.0217          0.0217
   3.3400          0.0217          0.0217          0.0217
   3.3600          0.0216          0.0216          0.0216
   3.3800          0.0215          0.0215          0.0215
   3.4000          0.0214          0.0214          0.0214
   3.4200          0.0213          0.0213          0.0213
   3.4400          0.0212          0.0212          0.0212
   3.4600          0.0211          0.0211          0.0211
   3.4800          0.0210          0.0210          0.0210
   3.5000          0.0209          0.0209          0.0209
   3.5200          0.0208          0.0208          0.0208
   3.5400          0.0208          0.0208          0.0208
   3.5600          0.0207          0.0207          0.0207
   3.5800          0.0207          0.0207          0.0207
   3.6000          0.0207          0.0207          0.0207
   3.6200          0.0207          0.0207          0.0207
   3.6400          0.0208          0.0208          0.0208
   3.6600          0.0208          0.0208          0.0208
   3.6800          0.0209          0.0209          0.0209
   3.7000          0.0211          0.0211          0.0211
   3.7200          0.0212          0.0212          0.0212
   3.7400          0.0214          0.0214          0.0214
   3.7600          0.0217          0.0217          0.0217
   3.7800          0.0220          0.0220          0.0220
   3.8000          0.0223          0.0223          0.0223
   3.8200          0.0226          0.0226          0.0226
   3.8400          0.0230          0.0230          0.0230
   3.8600          0.0235          0.0235          0.0235
   3.8800          0.0239          0.0239          0.0239
   3.9000          0.0245          0.0245          0.0245
   3.9200          0.0250          0.0250          0.0250
   3.9400          0.0256          0.0256          0.0256
   3.9600          0.0261          0.0261          0.0261
   3.9800          0.0267          0.0267          0.0267
   4.0000          0.0273          0.0273          0.0273
   4.0200          0.0279          0.0279          0.0279
   4.0400          0.0285          0.0285          0.0285
   4.0600          0.0292          0.0292          0.0292
   4.0800          0.0299          0.0299          0.0299
   4.1000          0.0307          0.0307          0.0307
   4.1200          0.0316          0.0316          0.0316
   4.1400          0.0325          0.0325          0.0325
   4.1600          0.0336          0.0336          0.0336
   4.1800          0.0348          0.0348          0.0348
   4.2000          0.0360          0.0360          0.0360
   4.2200          0.0372          0.0372          0.0372
   4.2400          0.0383          0.0383          0.0383
   4.2600          0.0393          0.0393          0.0393
   4.2800          0.0400          0.0400          0.0400
   4.3000          0.0406          0.0406          0.0406
   4.3200          0.0409          0.0409          0.0409
   4.3400          0.0411          0.0411          0.0411
   4.3600          0.0412          0.0412          0.0412
   4.3800          0.0411          0.0411          0.0411
   4.4000          0.0411          0.0411          0.0411
   4.4200          0.0411          0.0411          0.0411
   4.4400          0.0411          0.0411          0.0411
   4.4600          0.0411          0.0411          0.0411
   4.4800          0.0413          0.0413          0.0413
   4.5000          0.0415          0.0415          0.0415
   4.5200          0.0417          0.0417          0.0417
   4.5400          0.0421          0.0421          0.0421
   4.5600          0.0425          0.0425          0.0425
   4.5800          0.0430          0.0430          0.0430
   4.6000          0.0435          0.0435          0.0435
   4.6200          0.0441          0.0441          0.0441
   4.6400          0.0447          0.0447          0.0447
   4.6600          0.0453          0.0453          0.0453
   4.6800          0.0459          0.0459          0.0459
   4.7000          0.0464          0.0464          0.0464
   4.7200          0.0469          0.0469          0.0469
   4.7400          0.0474          0.0474          0.0474
   4.7600          0.0477          0.0477          0.0477
   4.7800          0.0479          0.0479          0.0479
   4.8000          0.0479          0.0479          0.0479
   4.8200          0.0479          0.0479          0.0479
   4.8400          0.0477          0.0477          0.0477
   4.8600          0.0474          0.0474          0.0474
   4.8800          0.0471          0.0471          0.0471
   4.9000          0.0468          0.0468          0.0468
   4.9200          0.0465          0.0465          0.0465
   4.9400          0.0463          0.0463          0.0463
   4.9600          0.0461          0.0461          0.0461
   4.9800          0.0461          0.0461          0.0461
   5.0000          0.0462          0.0462          0.0462
   5.0200          0.0465          0.0465          0.0465
   5.0400          0.0469          0.0469          0.0469
   5.0600          0.0476          0.0476          0.0476
   5.0800          0.0484          0.0484          0.0484
   5.1000          0.0494          0.0494          0.0494
   5.1200          0.0506          0.0506          0.0506
   5.1400          0.0518          0.0518          0.0518
   5.1600          0.0531          0.0531          0.0531
   5.1800          0.0544          0.0544          0.0544
   5.2000          0.0555          0.0555          0.0555
   5.2200          0.0566          0.0566          0.0566
   5.2400          0.0574          0.0574          0.0574
   5.2600          0.0580          0.0580          0.0580
   5.2800          0.0584          0.0584          0.0584
   5.3000          0.0586          0.0586          0.0586
   5.3200          0.0586          0.0586          0.0586
   5.3400          0.0584          0.0584          0.0584
   5.3600          0.0580          0.0580          0.0580
   5.3800          0.0576          0.0576          0.0576
   5.4000          0.0571          0.0571          0.0571
   5.4200          0.0566          0.0566          0.0566
   5.4400          0.0562          0.0562          0.0562
   5.4600          0.0558          0.0558          0.0558
   5.4800          0.0555          0.0555          0.0555
   5.5000          0.0554          0.0554          0.0554
   5.5200          0.0554          0.0554          0.0554
   5.5400          0.0555          0.0555          0.0555
   5.5600          0.0557          0.0557          0.0557
   5.5800          0.0561          0.0561          0.0561
   5.6000          0.0566          0.0566          0.0566
   5.6200          0.0572          0.0572          0.0572
   5.6400          0.0577          0.0577          0.0577
   5.6600          0.0584          0.0584          0.0584
   5.6800          0.0590          0.0590          0.0590
   5.7000          0.0596          0.0596          0.0596
   5.7200          0.0603          0.0603          0.0603
   5.7400          0.0610          0.0610          0.0610
   5.7600          0.0618          0.0618          0.0618
   5.7800          0.0627          0.0627          0.0627
   5.8000          0.0637          0.0637          0.0637
   5.8200          0.0647          0.0647          0.0647
   5.8400          0.0658          0.0658          0.0658
   5.8600          0.0669          0.0669          0.0669
   5.8800          0.0679          0.0679          0.0679
   5.9000          0.0689          0.0689          0.0689
   5.9200          0.0696          0.0696          0.0696
   5.9400          0.0702          0.0702          0.0702
   5.9600          0.0705          0.0705          0.0705
   5.9800          0.0705          0.0705          0.0705
   6.0000          0.0703          0.0703          0.0703
   6.0200          0.0699          0.0699          0.0699
   6.0400          0.0694          0.0694          0.0694
   6.0600          0.0689          0.0689          0.0689
   6.0800          0.0683          0.0683          0.0683
   6.1000          0.0678          0.0678          0.0678
   6.1200          0.0674          0.0674          0.0674
   6.1400          0.0671          0.0671          0.0671
   6.1600          0.0669          0.0669          0.0669
   6.1800          0.0668          0.0668          0.0668
   6.2000          0.0668          0.0668          0.0668
   6.2200          0.0670          0.0670          0.0670
   6.2400          0.0673          0.0673          0.0673
   6.2600          0.0678          0.0678          0.0678
   6.2800          0.0684          0.0684          0.0684
   6.3000          0.0691          0.0691          0.0691
   6.3200          0.0700          0.0700          0.0700
   6.3400          0.0711          0.0711          0.0711
   6.3600          0.0724          0.0724          0.0724
   6.3800          0.0738          0.0738          0.0738
   6.4000          0.0753          0.0753          0.0753
   6.4200          0.0769          0.0769          0.0769
   6.4400          0.0785          0.0785          0.0785
   6.4600          0.0801          0.0801          0.0801
   6.4800          0.0817          0.0817          0.0817
   6.5000          0.0831          0.0831          0.0831
   6.5200          0.0844          0.0844          0.0844
   6.5400          0.0854          0.0854          0.0854
   6.5600          0.0863          0.0863          0.0863
   6.5800          0.0869          0.0869          0.0869
   6.6000          0.0872          0.0872          0.0872
   6.6200          0.0874          0.0874          0.0874
   6.6400          0.0875          0.0875          0.0875
   6.6600          0.0874          0.0874          0.0874
   6.6800          0.0873          0.0873          0.0873
   6.7000          0.0872          0.0872          0.0872
   6.7200          0.0871          0.0871          0.0871
   6.7400          0.0870          0.0870          0.0870
   6.7600          0.0869          0.0869          0.0869
   6.7800          0.0870          0.0870          0.0870
   6.8000          0.0872          0.0872          0.0872
   6.8200          0.0875          0.0875          0.0875
   6.8400          0.0880          0.0880          0.0880
   6.8600          0.0886          0.0886          0.0886
