### linear absorption coefficients(in units of 10^5 cm-1)
   0.0000          0.0000          0.0000          0.0000          0.0000          0.0000          0.0000
   0.0200          0.0000          0.0000          0.0000          0.0000          0.0000          0.0000
   0.0400          0.0000          0.0000          0.0000          0.0000          0.0000          0.0000
   0.0600          0.0001          0.0001          0.0001          0.0000          0.0000          0.0000
   0.0800          0.0002          0.0002          0.0002          0.0000          0.0000          0.0000
   0.1000          0.0003          0.0003          0.0003          0.0000          0.0000          0.0000
   0.1200          0.0004          0.0004          0.0004          0.0000          0.0000          0.0000
   0.1400          0.0005          0.0005          0.0005          0.0000          0.0000          0.0000
   0.1600          0.0007          0.0007          0.0007          0.0000          0.0000          0.0000
   0.1800          0.0008          0.0008          0.0008          0.0000          0.0000          0.0000
   0.2000          0.0010          0.0010          0.0010          0.0000          0.0000          0.0000
   0.2200          0.0013          0.0013          0.0013          0.0000          0.0000          0.0000
   0.2400          0.0015          0.0015          0.0015          0.0000          0.0000          0.0000
   0.2600          0.0018          0.0018          0.0018          0.0000          0.0000          0.0000
   0.2800          0.0020          0.0020          0.0020          0.0000          0.0000          0.0000
   0.3000          0.0024          0.0024          0.0024          0.0000          0.0000          0.0000
   0.3200          0.0027          0.0027          0.0027          0.0000          0.0000          0.0000
   0.3400          0.0030          0.0030          0.0030          0.0000          0.0000          0.0000
   0.3600          0.0034          0.0034          0.0034          0.0000          0.0000          0.0000
   0.3800          0.0038          0.0038          0.0038          0.0000          0.0000          0.0000
   0.4000          0.0042          0.0042          0.0042          0.0000          0.0000          0.0000
   0.4200          0.0047          0.0047          0.0047          0.0000          0.0000          0.0000
   0.4400          0.0051          0.0051          0.0051          0.0000          0.0000          0.0000
   0.4600          0.0056          0.0056          0.0056          0.0000          0.0000          0.0000
   0.4800          0.0061          0.0061          0.0061          0.0000          0.0000          0.0000
   0.5000          0.0067          0.0067          0.0067          0.0000          0.0000          0.0000
   0.5200          0.0072          0.0072          0.0072          0.0000          0.0000          0.0000
   0.5400          0.0078          0.0078          0.0078          0.0000          0.0000          0.0000
   0.5600          0.0085          0.0085          0.0085          0.0000          0.0000          0.0000
   0.5800          0.0091          0.0091          0.0091          0.0000          0.0000          0.0000
   0.6000          0.0098          0.0098          0.0098          0.0000          0.0000          0.0000
   0.6200          0.0105          0.0105          0.0105          0.0000          0.0000          0.0000
   0.6400          0.0112          0.0112          0.0112          0.0000          0.0000          0.0000
   0.6600          0.0119          0.0119          0.0119          0.0000          0.0000          0.0000
   0.6800          0.0127          0.0127          0.0127          0.0000          0.0000          0.0000
   0.7000          0.0135          0.0135          0.0135          0.0000          0.0000          0.0000
   0.7200          0.0144          0.0144          0.0144          0.0000          0.0000          0.0000
   0.7400          0.0152          0.0152          0.0152          0.0000          0.0000          0.0000
   0.7600          0.0161          0.0161          0.0161          0.0000          0.0000          0.0000
   0.7800          0.0171          0.0171          0.0171          0.0000          0.0000          0.0000
   0.8000          0.0180          0.0180          0.0180          0.0000          0.0000          0.0000
   0.8200          0.0190          0.0190          0.0190          0.0000          0.0000          0.0000
   0.8400          0.0201          0.0201          0.0201          0.0000          0.0000          0.0000
   0.8600          0.0212          0.0212          0.0212          0.0000          0.0000          0.0000
   0.8800          0.0223          0.0223          0.0223          0.0000          0.0000          0.0000
   0.9000          0.0234          0.0234          0.0234          0.0000          0.0000          0.0000
   0.9200          0.0246          0.0246          0.0246          0.0000          0.0000          0.0000
   0.9400          0.0258          0.0258          0.0258          0.0000          0.0000          0.0000
   0.9600          0.0271          0.0271          0.0271          0.0000          0.0000          0.0000
   0.9800          0.0284          0.0284          0.0284          0.0000          0.0000          0.0000
   1.0000          0.0297          0.0297          0.0297          0.0000          0.0000          0.0000
   1.0200          0.0311          0.0311          0.0311          0.0000          0.0000          0.0000
   1.0400          0.0325          0.0325          0.0325          0.0000          0.0000          0.0000
   1.0600          0.0340          0.0340          0.0340          0.0000          0.0000          0.0000
   1.0800          0.0355          0.0355          0.0355          0.0000          0.0000          0.0000
   1.1000          0.0371          0.0371          0.0371          0.0000          0.0000          0.0000
   1.1200          0.0387          0.0387          0.0387          0.0000          0.0000          0.0000
   1.1400          0.0404          0.0404          0.0404          0.0000          0.0000          0.0000
   1.1600          0.0421          0.0421          0.0421          0.0000          0.0000          0.0000
   1.1800          0.0439          0.0439          0.0439          0.0000          0.0000          0.0000
   1.2000          0.0457          0.0457          0.0457          0.0000          0.0000          0.0000
   1.2200          0.0476          0.0476          0.0476          0.0000          0.0000          0.0000
   1.2400          0.0496          0.0496          0.0496          0.0000          0.0000          0.0000
   1.2600          0.0516          0.0516          0.0516          0.0000          0.0000          0.0000
   1.2800          0.0537          0.0537          0.0537          0.0000          0.0000          0.0000
   1.3000          0.0558          0.0558          0.0558          0.0000          0.0000          0.0000
   1.3200          0.0581          0.0581          0.0581          0.0000          0.0000          0.0000
   1.3400          0.0604          0.0604          0.0604          0.0000          0.0000          0.0000
   1.3600          0.0627          0.0627          0.0627          0.0000          0.0000          0.0000
   1.3800          0.0652          0.0652          0.0652          0.0000          0.0000          0.0000
   1.4000          0.0677          0.0677          0.0677          0.0000          0.0000          0.0000
   1.4200          0.0703          0.0703          0.0703          0.0000          0.0000          0.0000
   1.4400          0.0731          0.0731          0.0731          0.0000          0.0000          0.0000
   1.4600          0.0759          0.0759          0.0759          0.0000          0.0000          0.0000
   1.4800          0.0788          0.0788          0.0788          0.0000          0.0000          0.0000
   1.5000          0.0818          0.0818          0.0818          0.0000          0.0000          0.0000
   1.5200          0.0849          0.0849          0.0849          0.0000          0.0000          0.0000
   1.5400          0.0881          0.0881          0.0881          0.0000          0.0000          0.0000
   1.5600          0.0914          0.0914          0.0914          0.0000          0.0000          0.0000
   1.5800          0.0949          0.0949          0.0949          0.0000          0.0000          0.0000
   1.6000          0.0984          0.0984          0.0984          0.0000          0.0000          0.0000
   1.6200          0.1021          0.1021          0.1021          0.0000          0.0000          0.0000
   1.6400          0.1060          0.1060          0.1060          0.0000          0.0000          0.0000
   1.6600          0.1100          0.1100          0.1100          0.0000          0.0000          0.0000
   1.6800          0.1141          0.1141          0.1141          0.0000          0.0000          0.0000
   1.7000          0.1184          0.1184          0.1184          0.0000          0.0000          0.0000
   1.7200          0.1229          0.1229          0.1229          0.0000          0.0000          0.0000
   1.7400          0.1276          0.1276          0.1276          0.0000          0.0000          0.0000
   1.7600          0.1324          0.1324          0.1324          0.0000          0.0000          0.0000
   1.7800          0.1375          0.1375          0.1375          0.0000          0.0000          0.0000
   1.8000          0.1428          0.1428          0.1428          0.0000          0.0000          0.0000
   1.8200          0.1483          0.1483          0.1483          0.0000          0.0000          0.0000
   1.8400          0.1540          0.1540          0.1540          0.0000          0.0000          0.0000
   1.8600          0.1600          0.1600          0.1600          0.0000          0.0000          0.0000
   1.8800          0.1663          0.1663          0.1663          0.0000          0.0000          0.0000
   1.9000          0.1728          0.1728          0.1728          0.0000          0.0000          0.0000
   1.9200          0.1797          0.1797          0.1797          0.0000          0.0000          0.0000
   1.9400          0.1869          0.1869          0.1869          0.0000          0.0000          0.0000
   1.9600          0.1945          0.1945          0.1945          0.0000          0.0000          0.0000
   1.9800          0.2024          0.2024          0.2024          0.0000          0.0000          0.0000
   2.0000          0.2108          0.2108          0.2108          0.0000          0.0000          0.0000
   2.0200          0.2196          0.2196          0.2196          0.0000          0.0000          0.0000
   2.0400          0.2289          0.2289          0.2289          0.0000          0.0000          0.0000
   2.0600          0.2388          0.2388          0.2388          0.0000          0.0000          0.0000
   2.0800          0.2492          0.2492          0.2492          0.0000          0.0000          0.0000
   2.1000          0.2603          0.2603          0.2603          0.0000          0.0000          0.0000
   2.1200          0.2720          0.2720          0.2720          0.0000          0.0000          0.0000
   2.1400          0.2845          0.2845          0.2845          0.0000          0.0000          0.0000
   2.1600          0.2979          0.2979          0.2979          0.0000          0.0000          0.0000
   2.1800          0.3122          0.3122          0.3122          0.0000          0.0000          0.0000
   2.2000          0.3275          0.3275          0.3275          0.0000          0.0000          0.0000
   2.2200          0.3440          0.3440          0.3440          0.0000          0.0000          0.0000
   2.2400          0.3619          0.3619          0.3619          0.0000          0.0000          0.0000
   2.2600          0.3812          0.3812          0.3812          0.0000          0.0000          0.0000
   2.2800          0.4022          0.4022          0.4022          0.0000          0.0000          0.0000
   2.3000          0.4252          0.4252          0.4252          0.0000          0.0000          0.0000
   2.3200          0.4505          0.4505          0.4505          0.0000          0.0000          0.0000
   2.3400          0.4784          0.4784          0.4784          0.0000          0.0000          0.0000
   2.3600          0.5095          0.5095          0.5095          0.0000          0.0000          0.0000
   2.3800          0.5442          0.5442          0.5442          0.0000          0.0000          0.0000
   2.4000          0.5834          0.5834          0.5834          0.0000          0.0000          0.0000
   2.4200          0.6277          0.6277          0.6277          0.0000          0.0000          0.0000
   2.4400          0.6783          0.6783          0.6783          0.0000          0.0000          0.0000
   2.4600          0.7362          0.7362          0.7362          0.0000          0.0000          0.0000
   2.4800          0.8027          0.8027          0.8027          0.0000          0.0000          0.0000
   2.5000          0.8793          0.8793          0.8793          0.0000          0.0000          0.0000
   2.5200          0.9674          0.9674          0.9674          0.0000          0.0000          0.0000
   2.5400          1.0684          1.0684          1.0684          0.0000          0.0000          0.0000
   2.5600          1.1839          1.1839          1.1839          0.0000          0.0000          0.0000
   2.5800          1.3151          1.3151          1.3151          0.0000          0.0000          0.0000
   2.6000          1.4632          1.4632          1.4632          0.0000          0.0000          0.0000
   2.6200          1.6292          1.6292          1.6292          0.0000          0.0000          0.0000
   2.6400          1.8135          1.8135          1.8135          0.0000          0.0000          0.0000
   2.6600          2.0163          2.0163          2.0163          0.0000          0.0000          0.0000
   2.6800          2.2370          2.2370          2.2370          0.0000          0.0000          0.0000
   2.7000          2.4741          2.4741          2.4741          0.0000          0.0000          0.0000
   2.7200          2.7253          2.7253          2.7253          0.0000          0.0000          0.0000
   2.7400          2.9873          2.9873          2.9873          0.0000          0.0000          0.0000
   2.7600          3.2561          3.2561          3.2561          0.0000          0.0000          0.0000
   2.7800          3.5272          3.5272          3.5272          0.0000          0.0000          0.0000
   2.8000          3.7961          3.7961          3.7961          0.0000          0.0000          0.0000
   2.8200          4.0587          4.0587          4.0587          0.0000          0.0000          0.0000
   2.8400          4.3114          4.3114          4.3114          0.0000          0.0000          0.0000
   2.8600          4.5516          4.5516          4.5516          0.0000          0.0000          0.0000
   2.8800          4.7779          4.7779          4.7779          0.0000          0.0000          0.0000
   2.9000          4.9895          4.9895          4.9895          0.0000          0.0000          0.0000
   2.9200          5.1865          5.1865          5.1865          0.0000          0.0000          0.0000
   2.9400          5.3698          5.3698          5.3698          0.0000          0.0000          0.0000
   2.9600          5.5406          5.5406          5.5406          0.0000          0.0000          0.0000
   2.9800          5.7008          5.7008          5.7008          0.0000          0.0000          0.0000
   3.0000          5.8526          5.8526          5.8526          0.0000          0.0000          0.0000
   3.0200          5.9988          5.9988          5.9988          0.0000          0.0000          0.0000
   3.0400          6.1422          6.1422          6.1422          0.0000          0.0000          0.0000
   3.0600          6.2859          6.2859          6.2859          0.0000          0.0000          0.0000
   3.0800          6.4327          6.4327          6.4327          0.0000          0.0000          0.0000
   3.1000          6.5844          6.5844          6.5844          0.0000          0.0000          0.0000
   3.1200          6.7421          6.7421          6.7421          0.0000          0.0000          0.0000
   3.1400          6.9051          6.9051          6.9051          0.0000          0.0000          0.0000
   3.1600          7.0716          7.0716          7.0716          0.0000          0.0000          0.0000
   3.1800          7.2388          7.2388          7.2388          0.0000          0.0000          0.0000
   3.2000          7.4031          7.4031          7.4031          0.0000          0.0000          0.0000
   3.2200          7.5614          7.5614          7.5614          0.0000          0.0000          0.0000
   3.2400          7.7116          7.7116          7.7116          0.0000          0.0000          0.0000
   3.2600          7.8534          7.8534          7.8534          0.0000          0.0000          0.0000
   3.2800          7.9887          7.9887          7.9887          0.0000          0.0000          0.0000
   3.3000          8.1214          8.1214          8.1214          0.0000          0.0000          0.0000
   3.3200          8.2570          8.2570          8.2570          0.0000          0.0000          0.0000
   3.3400          8.4020          8.4020          8.4020          0.0000          0.0000          0.0000
   3.3600          8.5621          8.5621          8.5621          0.0000          0.0000          0.0000
   3.3800          8.7423          8.7423          8.7423          0.0000          0.0000          0.0000
   3.4000          8.9460          8.9460          8.9460          0.0000          0.0000          0.0000
   3.4200          9.1752          9.1752          9.1752          0.0000          0.0000          0.0000
   3.4400          9.4309          9.4309          9.4309          0.0000          0.0000          0.0000
   3.4600          9.7137          9.7137          9.7137          0.0000          0.0000          0.0000
   3.4800         10.0240         10.0240         10.0240          0.0000          0.0000          0.0000
   3.5000         10.3628         10.3628         10.3628          0.0000          0.0000          0.0000
   3.5200         10.7312         10.7312         10.7312          0.0000          0.0000          0.0000
   3.5400         11.1306         11.1306         11.1306          0.0000          0.0000          0.0000
   3.5600         11.5628         11.5628         11.5628          0.0000          0.0000          0.0000
   3.5800         12.0288         12.0288         12.0288          0.0000          0.0000          0.0000
   3.6000         12.5294         12.5294         12.5294          0.0000          0.0000          0.0000
   3.6200         13.0640         13.0640         13.0640          0.0000          0.0000          0.0000
   3.6400         13.6306         13.6306         13.6306          0.0000          0.0000          0.0000
   3.6600         14.2250         14.2250         14.2250          0.0000          0.0000          0.0000
   3.6800         14.8410         14.8410         14.8410          0.0000          0.0000          0.0000
   3.7000         15.4702         15.4702         15.4702          0.0000          0.0000          0.0000
   3.7200         16.1025         16.1025         16.1025          0.0000          0.0000          0.0000
   3.7400         16.7264         16.7264         16.7264          0.0000          0.0000          0.0000
