### imag part of conductivity (in units of 10^15 sec^-1)
   0.0000          3.2898          3.2898          3.2898          0.0000          0.0000          0.0000
   0.0200          3.2519          3.2519          3.2519          0.0000          0.0000          0.0000
   0.0400          3.2140          3.2140          3.2140          0.0000          0.0000          0.0000
   0.0600          3.1761          3.1761          3.1761          0.0000          0.0000          0.0000
   0.0800          3.1382          3.1382          3.1382          0.0000          0.0000          0.0000
   0.1000          3.1002          3.1002          3.1002          0.0000          0.0000          0.0000
   0.1200          3.0622          3.0622          3.0622          0.0000          0.0000          0.0000
   0.1400          3.0242          3.0242          3.0242          0.0000          0.0000          0.0000
   0.1600          2.9862          2.9862          2.9862          0.0000          0.0000          0.0000
   0.1800          2.9481          2.9481          2.9481          0.0000          0.0000          0.0000
   0.2000          2.9099          2.9099          2.9099          0.0000          0.0000          0.0000
   0.2200          2.8717          2.8717          2.8717          0.0000          0.0000          0.0000
   0.2400          2.8334          2.8334          2.8334          0.0000          0.0000          0.0000
   0.2600          2.7950          2.7950          2.7950          0.0000          0.0000          0.0000
   0.2800          2.7566          2.7566          2.7566          0.0000          0.0000          0.0000
   0.3000          2.7181          2.7181          2.7181          0.0000          0.0000          0.0000
   0.3200          2.6795          2.6795          2.6795          0.0000          0.0000          0.0000
   0.3400          2.6408          2.6408          2.6408          0.0000          0.0000          0.0000
   0.3600          2.6020          2.6020          2.6020          0.0000          0.0000          0.0000
   0.3800          2.5631          2.5631          2.5631          0.0000          0.0000          0.0000
   0.4000          2.5240          2.5240          2.5240          0.0000          0.0000          0.0000
   0.4200          2.4849          2.4849          2.4849          0.0000          0.0000          0.0000
   0.4400          2.4456          2.4456          2.4456          0.0000          0.0000          0.0000
   0.4600          2.4062          2.4062          2.4062          0.0000          0.0000          0.0000
   0.4800          2.3666          2.3666          2.3666          0.0000          0.0000          0.0000
   0.5000          2.3269          2.3269          2.3269          0.0000          0.0000          0.0000
   0.5200          2.2871          2.2871          2.2871          0.0000          0.0000          0.0000
   0.5400          2.2470          2.2470          2.2470          0.0000          0.0000          0.0000
   0.5600          2.2068          2.2068          2.2068          0.0000          0.0000          0.0000
   0.5800          2.1664          2.1664          2.1664          0.0000          0.0000          0.0000
   0.6000          2.1259          2.1259          2.1259          0.0000          0.0000          0.0000
   0.6200          2.0851          2.0851          2.0851          0.0000          0.0000          0.0000
   0.6400          2.0442          2.0442          2.0442          0.0000          0.0000          0.0000
   0.6600          2.0030          2.0030          2.0030          0.0000          0.0000          0.0000
   0.6800          1.9616          1.9616          1.9616          0.0000          0.0000          0.0000
   0.7000          1.9200          1.9200          1.9200          0.0000          0.0000          0.0000
   0.7200          1.8782          1.8782          1.8782          0.0000          0.0000          0.0000
   0.7400          1.8361          1.8361          1.8361          0.0000          0.0000          0.0000
   0.7600          1.7937          1.7937          1.7937          0.0000          0.0000          0.0000
   0.7800          1.7511          1.7511          1.7511          0.0000          0.0000          0.0000
   0.8000          1.7083          1.7083          1.7083          0.0000          0.0000          0.0000
   0.8200          1.6651          1.6651          1.6651          0.0000          0.0000          0.0000
   0.8400          1.6217          1.6217          1.6217          0.0000          0.0000          0.0000
   0.8600          1.5780          1.5780          1.5780          0.0000          0.0000          0.0000
   0.8800          1.5339          1.5339          1.5339          0.0000          0.0000          0.0000
   0.9000          1.4895          1.4895          1.4895          0.0000          0.0000          0.0000
   0.9200          1.4448          1.4448          1.4448          0.0000          0.0000          0.0000
   0.9400          1.3998          1.3998          1.3998          0.0000          0.0000          0.0000
   0.9600          1.3544          1.3544          1.3544          0.0000          0.0000          0.0000
   0.9800          1.3087          1.3087          1.3087          0.0000          0.0000          0.0000
   1.0000          1.2625          1.2625          1.2625          0.0000          0.0000          0.0000
   1.0200          1.2160          1.2160          1.2160          0.0000          0.0000          0.0000
   1.0400          1.1691          1.1691          1.1691          0.0000          0.0000          0.0000
   1.0600          1.1218          1.1218          1.1218          0.0000          0.0000          0.0000
   1.0800          1.0740          1.0740          1.0740          0.0000          0.0000          0.0000
   1.1000          1.0258          1.0258          1.0258          0.0000          0.0000          0.0000
   1.1200          0.9771          0.9771          0.9771          0.0000          0.0000          0.0000
   1.1400          0.9280          0.9280          0.9280          0.0000          0.0000          0.0000
   1.1600          0.8784          0.8784          0.8784          0.0000          0.0000          0.0000
   1.1800          0.8283          0.8283          0.8283          0.0000          0.0000          0.0000
   1.2000          0.7776          0.7776          0.7776          0.0000          0.0000          0.0000
   1.2200          0.7264          0.7264          0.7264          0.0000          0.0000          0.0000
   1.2400          0.6747          0.6747          0.6747          0.0000          0.0000          0.0000
   1.2600          0.6224          0.6224          0.6224          0.0000          0.0000          0.0000
   1.2800          0.5695          0.5695          0.5695          0.0000          0.0000          0.0000
   1.3000          0.5161          0.5161          0.5161          0.0000          0.0000          0.0000
   1.3200          0.4619          0.4619          0.4619          0.0000          0.0000          0.0000
   1.3400          0.4072          0.4072          0.4072          0.0000          0.0000          0.0000
   1.3600          0.3517          0.3517          0.3517          0.0000          0.0000          0.0000
   1.3800          0.2956          0.2956          0.2956          0.0000          0.0000          0.0000
   1.4000          0.2387          0.2387          0.2387          0.0000          0.0000          0.0000
   1.4200          0.1811          0.1811          0.1811          0.0000          0.0000          0.0000
   1.4400          0.1228          0.1228          0.1228          0.0000          0.0000          0.0000
   1.4600          0.0636          0.0636          0.0636          0.0000          0.0000          0.0000
   1.4800          0.0036          0.0036          0.0036          0.0000          0.0000          0.0000
   1.5000         -0.0572         -0.0572         -0.0572          0.0000          0.0000          0.0000
   1.5200         -0.1189         -0.1189         -0.1189          0.0000          0.0000          0.0000
   1.5400         -0.1816         -0.1816         -0.1816          0.0000          0.0000          0.0000
   1.5600         -0.2451         -0.2451         -0.2451          0.0000          0.0000          0.0000
   1.5800         -0.3097         -0.3097         -0.3097          0.0000          0.0000          0.0000
   1.6000         -0.3753         -0.3753         -0.3753          0.0000          0.0000          0.0000
   1.6200         -0.4419         -0.4419         -0.4419          0.0000          0.0000          0.0000
   1.6400         -0.5096         -0.5096         -0.5096          0.0000          0.0000          0.0000
   1.6600         -0.5785         -0.5785         -0.5785          0.0000          0.0000          0.0000
   1.6800         -0.6486         -0.6486         -0.6486          0.0000          0.0000          0.0000
   1.7000         -0.7198         -0.7198         -0.7198          0.0000          0.0000          0.0000
   1.7200         -0.7924         -0.7924         -0.7924          0.0000          0.0000          0.0000
   1.7400         -0.8663         -0.8663         -0.8663          0.0000          0.0000          0.0000
   1.7600         -0.9416         -0.9416         -0.9416          0.0000          0.0000          0.0000
   1.7800         -1.0183         -1.0183         -1.0183          0.0000          0.0000          0.0000
   1.8000         -1.0965         -1.0965         -1.0965          0.0000          0.0000          0.0000
   1.8200         -1.1763         -1.1763         -1.1763          0.0000          0.0000          0.0000
   1.8400         -1.2577         -1.2577         -1.2577          0.0000          0.0000          0.0000
   1.8600         -1.3409         -1.3409         -1.3409          0.0000          0.0000          0.0000
   1.8800         -1.4258         -1.4258         -1.4258          0.0000          0.0000          0.0000
   1.9000         -1.5126         -1.5126         -1.5126          0.0000          0.0000          0.0000
   1.9200         -1.6014         -1.6014         -1.6014          0.0000          0.0000          0.0000
   1.9400         -1.6922         -1.6922         -1.6922          0.0000          0.0000          0.0000
   1.9600         -1.7852         -1.7852         -1.7852          0.0000          0.0000          0.0000
   1.9800         -1.8805         -1.8805         -1.8805          0.0000          0.0000          0.0000
   2.0000         -1.9781         -1.9781         -1.9781          0.0000          0.0000          0.0000
   2.0200         -2.0783         -2.0783         -2.0783          0.0000          0.0000          0.0000
   2.0400         -2.1810         -2.1810         -2.1810          0.0000          0.0000          0.0000
   2.0600         -2.2866         -2.2866         -2.2866          0.0000          0.0000          0.0000
   2.0800         -2.3952         -2.3952         -2.3952          0.0000          0.0000          0.0000
   2.1000         -2.5068         -2.5068         -2.5068          0.0000          0.0000          0.0000
   2.1200         -2.6218         -2.6218         -2.6218          0.0000          0.0000          0.0000
   2.1400         -2.7403         -2.7403         -2.7403          0.0000          0.0000          0.0000
   2.1600         -2.8625         -2.8625         -2.8625          0.0000          0.0000          0.0000
   2.1800         -2.9887         -2.9887         -2.9887          0.0000          0.0000          0.0000
   2.2000         -3.1192         -3.1192         -3.1192          0.0000          0.0000          0.0000
   2.2200         -3.2541         -3.2541         -3.2541          0.0000          0.0000          0.0000
   2.2400         -3.3940         -3.3940         -3.3940          0.0000          0.0000          0.0000
   2.2600         -3.5390         -3.5390         -3.5390          0.0000          0.0000          0.0000
   2.2800         -3.6896         -3.6896         -3.6896          0.0000          0.0000          0.0000
   2.3000         -3.8463         -3.8463         -3.8463          0.0000          0.0000          0.0000
   2.3200         -4.0094         -4.0094         -4.0094          0.0000          0.0000          0.0000
   2.3400         -4.1794         -4.1794         -4.1794          0.0000          0.0000          0.0000
   2.3600         -4.3570         -4.3570         -4.3570          0.0000          0.0000          0.0000
   2.3800         -4.5425         -4.5425         -4.5425          0.0000          0.0000          0.0000
   2.4000         -4.7365         -4.7365         -4.7365          0.0000          0.0000          0.0000
   2.4200         -4.9395         -4.9395         -4.9395          0.0000          0.0000          0.0000
   2.4400         -5.1517         -5.1517         -5.1517          0.0000          0.0000          0.0000
   2.4600         -5.3734         -5.3734         -5.3734          0.0000          0.0000          0.0000
   2.4800         -5.6043         -5.6043         -5.6043          0.0000          0.0000          0.0000
   2.5000         -5.8441         -5.8441         -5.8441          0.0000          0.0000          0.0000
   2.5200         -6.0917         -6.0917         -6.0917          0.0000          0.0000          0.0000
   2.5400         -6.3458         -6.3458         -6.3458          0.0000          0.0000          0.0000
   2.5600         -6.6043         -6.6043         -6.6043          0.0000          0.0000          0.0000
   2.5800         -6.8647         -6.8647         -6.8647          0.0000          0.0000          0.0000
   2.6000         -7.1237         -7.1237         -7.1237          0.0000          0.0000          0.0000
   2.6200         -7.3774         -7.3774         -7.3774          0.0000          0.0000          0.0000
   2.6400         -7.6210         -7.6210         -7.6210          0.0000          0.0000          0.0000
   2.6600         -7.8494         -7.8494         -7.8494          0.0000          0.0000          0.0000
   2.6800         -8.0569         -8.0569         -8.0569          0.0000          0.0000          0.0000
   2.7000         -8.2376         -8.2376         -8.2376          0.0000          0.0000          0.0000
   2.7200         -8.3865         -8.3865         -8.3865          0.0000          0.0000          0.0000
   2.7400         -8.4994         -8.4994         -8.4994          0.0000          0.0000          0.0000
   2.7600         -8.5740         -8.5740         -8.5740          0.0000          0.0000          0.0000
   2.7800         -8.6101         -8.6101         -8.6101          0.0000          0.0000          0.0000
   2.8000         -8.6097         -8.6097         -8.6097          0.0000          0.0000          0.0000
   2.8200         -8.5773         -8.5773         -8.5773          0.0000          0.0000          0.0000
   2.8400         -8.5183         -8.5183         -8.5183          0.0000          0.0000          0.0000
   2.8600         -8.4395         -8.4395         -8.4395          0.0000          0.0000          0.0000
   2.8800         -8.3475         -8.3475         -8.3475          0.0000          0.0000          0.0000
   2.9000         -8.2488         -8.2488         -8.2488          0.0000          0.0000          0.0000
   2.9200         -8.1491         -8.1491         -8.1491          0.0000          0.0000          0.0000
   2.9400         -8.0533         -8.0533         -8.0533          0.0000          0.0000          0.0000
   2.9600         -7.9653         -7.9653         -7.9653          0.0000          0.0000          0.0000
   2.9800         -7.8881         -7.8881         -7.8881          0.0000          0.0000          0.0000
   3.0000         -7.8236         -7.8236         -7.8236          0.0000          0.0000          0.0000
   3.0200         -7.7728         -7.7728         -7.7728          0.0000          0.0000          0.0000
   3.0400         -7.7352         -7.7352         -7.7352          0.0000          0.0000          0.0000
   3.0600         -7.7088         -7.7088         -7.7088          0.0000          0.0000          0.0000
   3.0800         -7.6904         -7.6904         -7.6904          0.0000          0.0000          0.0000
   3.1000         -7.6759         -7.6759         -7.6759          0.0000          0.0000          0.0000
   3.1200         -7.6609         -7.6609         -7.6609          0.0000          0.0000          0.0000
   3.1400         -7.6416         -7.6416         -7.6416          0.0000          0.0000          0.0000
   3.1600         -7.6155         -7.6155         -7.6155          0.0000          0.0000          0.0000
   3.1800         -7.5826         -7.5826         -7.5826          0.0000          0.0000          0.0000
   3.2000         -7.5453         -7.5453         -7.5453          0.0000          0.0000          0.0000
   3.2200         -7.5088         -7.5088         -7.5088          0.0000          0.0000          0.0000
   3.2400         -7.4795         -7.4795         -7.4795          0.0000          0.0000          0.0000
   3.2600         -7.4648         -7.4648         -7.4648          0.0000          0.0000          0.0000
   3.2800         -7.4706         -7.4706         -7.4706          0.0000          0.0000          0.0000
   3.3000         -7.5008         -7.5008         -7.5008          0.0000          0.0000          0.0000
   3.3200         -7.5559         -7.5559         -7.5559          0.0000          0.0000          0.0000
   3.3400         -7.6330         -7.6330         -7.6330          0.0000          0.0000          0.0000
   3.3600         -7.7264         -7.7264         -7.7264          0.0000          0.0000          0.0000
   3.3800         -7.8288         -7.8288         -7.8288          0.0000          0.0000          0.0000
   3.4000         -7.9322         -7.9322         -7.9322          0.0000          0.0000          0.0000
   3.4200         -8.0290         -8.0290         -8.0290          0.0000          0.0000          0.0000
   3.4400         -8.1126         -8.1126         -8.1126          0.0000          0.0000          0.0000
   3.4600         -8.1773         -8.1773         -8.1773          0.0000          0.0000          0.0000
   3.4800         -8.2178         -8.2178         -8.2178          0.0000          0.0000          0.0000
   3.5000         -8.2288         -8.2288         -8.2288          0.0000          0.0000          0.0000
   3.5200         -8.2040         -8.2040         -8.2040          0.0000          0.0000          0.0000
   3.5400         -8.1360         -8.1360         -8.1360          0.0000          0.0000          0.0000
   3.5600         -8.0161         -8.0161         -8.0161          0.0000          0.0000          0.0000
   3.5800         -7.8337         -7.8337         -7.8337          0.0000          0.0000          0.0000
   3.6000         -7.5770         -7.5770         -7.5770          0.0000          0.0000          0.0000
   3.6200         -7.2339         -7.2339         -7.2339          0.0000          0.0000          0.0000
   3.6400         -6.7925         -6.7925         -6.7925          0.0000          0.0000          0.0000
   3.6600         -6.2428         -6.2428         -6.2428          0.0000          0.0000          0.0000
   3.6800         -5.5788         -5.5788         -5.5788          0.0000          0.0000          0.0000
   3.7000         -4.7993         -4.7993         -4.7993          0.0000          0.0000          0.0000
   3.7200         -3.9099         -3.9099         -3.9099          0.0000          0.0000          0.0000
   3.7400         -2.9228         -2.9228         -2.9228          0.0000          0.0000          0.0000
