### linear absorption coefficients(in units of 10^5 cm-1)
   0.0000          0.0000          0.0000          0.0000          0.0000          0.0000          0.0000
   0.0200          0.6237          0.6237          0.6237          0.0000          0.0000          0.0000
   0.0400          0.8843          0.8843          0.8843          0.0000          0.0000          0.0000
   0.0600          1.0856          1.0856          1.0856          0.0000          0.0000          0.0000
   0.0800          1.2563          1.2563          1.2563          0.0000          0.0000          0.0000
   0.1000          1.4076          1.4076          1.4076          0.0000          0.0000          0.0000
   0.1200          1.5451          1.5451          1.5451          0.0000          0.0000          0.0000
   0.1400          1.6721          1.6721          1.6721          0.0000          0.0000          0.0000
   0.1600          1.7908          1.7908          1.7908          0.0000          0.0000          0.0000
   0.1800          1.9027          1.9027          1.9027          0.0000          0.0000          0.0000
   0.2000          2.0088          2.0088          2.0088          0.0000          0.0000          0.0000
   0.2200          2.1099          2.1099          2.1099          0.0000          0.0000          0.0000
   0.2400          2.2067          2.2067          2.2067          0.0000          0.0000          0.0000
   0.2600          2.2996          2.2996          2.2996          0.0000          0.0000          0.0000
   0.2800          2.3891          2.3891          2.3891          0.0000          0.0000          0.0000
   0.3000          2.4754          2.4754          2.4754          0.0000          0.0000          0.0000
   0.3200          2.5588          2.5588          2.5588          0.0000          0.0000          0.0000
   0.3400          2.6395          2.6395          2.6395          0.0000          0.0000          0.0000
   0.3600          2.7178          2.7178          2.7178          0.0000          0.0000          0.0000
   0.3800          2.7936          2.7936          2.7936          0.0000          0.0000          0.0000
   0.4000          2.8672          2.8672          2.8672          0.0000          0.0000          0.0000
   0.4200          2.9388          2.9388          2.9388          0.0000          0.0000          0.0000
   0.4400          3.0082          3.0082          3.0082          0.0000          0.0000          0.0000
   0.4600          3.0758          3.0758          3.0758          0.0000          0.0000          0.0000
   0.4800          3.1415          3.1415          3.1415          0.0000          0.0000          0.0000
   0.5000          3.2053          3.2053          3.2053          0.0000          0.0000          0.0000
   0.5200          3.2674          3.2674          3.2674          0.0000          0.0000          0.0000
   0.5400          3.3278          3.3278          3.3278          0.0000          0.0000          0.0000
   0.5600          3.3866          3.3866          3.3866          0.0000          0.0000          0.0000
   0.5800          3.4437          3.4437          3.4437          0.0000          0.0000          0.0000
   0.6000          3.4991          3.4991          3.4991          0.0000          0.0000          0.0000
   0.6200          3.5531          3.5531          3.5531          0.0000          0.0000          0.0000
   0.6400          3.6054          3.6054          3.6054          0.0000          0.0000          0.0000
   0.6600          3.6562          3.6562          3.6562          0.0000          0.0000          0.0000
   0.6800          3.7055          3.7055          3.7055          0.0000          0.0000          0.0000
   0.7000          3.7533          3.7533          3.7533          0.0000          0.0000          0.0000
   0.7200          3.7996          3.7996          3.7996          0.0000          0.0000          0.0000
   0.7400          3.8444          3.8444          3.8444          0.0000          0.0000          0.0000
   0.7600          3.8878          3.8878          3.8878          0.0000          0.0000          0.0000
   0.7800          3.9296          3.9296          3.9296          0.0000          0.0000          0.0000
   0.8000          3.9700          3.9700          3.9700          0.0000          0.0000          0.0000
   0.8200          4.0090          4.0090          4.0090          0.0000          0.0000          0.0000
   0.8400          4.0464          4.0464          4.0464          0.0000          0.0000          0.0000
   0.8600          4.0825          4.0825          4.0825          0.0000          0.0000          0.0000
   0.8800          4.1170          4.1170          4.1170          0.0000          0.0000          0.0000
   0.9000          4.1501          4.1501          4.1501          0.0000          0.0000          0.0000
   0.9200          4.1817          4.1817          4.1817          0.0000          0.0000          0.0000
   0.9400          4.2119          4.2119          4.2119          0.0000          0.0000          0.0000
   0.9600          4.2406          4.2406          4.2406          0.0000          0.0000          0.0000
   0.9800          4.2677          4.2677          4.2677          0.0000          0.0000          0.0000
   1.0000          4.2934          4.2934          4.2934          0.0000          0.0000          0.0000
   1.0200          4.3177          4.3177          4.3177          0.0000          0.0000          0.0000
   1.0400          4.3403          4.3403          4.3403          0.0000          0.0000          0.0000
   1.0600          4.3615          4.3615          4.3615          0.0000          0.0000          0.0000
   1.0800          4.3812          4.3812          4.3812          0.0000          0.0000          0.0000
   1.1000          4.3993          4.3993          4.3993          0.0000          0.0000          0.0000
   1.1200          4.4159          4.4159          4.4159          0.0000          0.0000          0.0000
   1.1400          4.4309          4.4309          4.4309          0.0000          0.0000          0.0000
   1.1600          4.4444          4.4444          4.4444          0.0000          0.0000          0.0000
   1.1800          4.4564          4.4564          4.4564          0.0000          0.0000          0.0000
   1.2000          4.4669          4.4669          4.4669          0.0000          0.0000          0.0000
   1.2200          4.4760          4.4760          4.4760          0.0000          0.0000          0.0000
   1.2400          4.4838          4.4838          4.4838          0.0000          0.0000          0.0000
   1.2600          4.4905          4.4905          4.4905          0.0000          0.0000          0.0000
   1.2800          4.4962          4.4962          4.4962          0.0000          0.0000          0.0000
   1.3000          4.5014          4.5014          4.5014          0.0000          0.0000          0.0000
   1.3200          4.5065          4.5065          4.5065          0.0000          0.0000          0.0000
   1.3400          4.5119          4.5119          4.5119          0.0000          0.0000          0.0000
   1.3600          4.5183          4.5183          4.5183          0.0000          0.0000          0.0000
   1.3800          4.5262          4.5262          4.5262          0.0000          0.0000          0.0000
   1.4000          4.5360          4.5360          4.5360          0.0000          0.0000          0.0000
   1.4200          4.5481          4.5481          4.5481          0.0000          0.0000          0.0000
   1.4400          4.5622          4.5622          4.5622          0.0000          0.0000          0.0000
   1.4600          4.5780          4.5780          4.5780          0.0000          0.0000          0.0000
   1.4800          4.5943          4.5943          4.5943          0.0000          0.0000          0.0000
   1.5000          4.6099          4.6099          4.6099          0.0000          0.0000          0.0000
   1.5200          4.6234          4.6234          4.6234          0.0000          0.0000          0.0000
   1.5400          4.6333          4.6333          4.6333          0.0000          0.0000          0.0000
   1.5600          4.6385          4.6385          4.6385          0.0000          0.0000          0.0000
   1.5800          4.6384          4.6384          4.6384          0.0000          0.0000          0.0000
   1.6000          4.6329          4.6329          4.6329          0.0000          0.0000          0.0000
   1.6200          4.6229          4.6229          4.6229          0.0000          0.0000          0.0000
   1.6400          4.6096          4.6096          4.6096          0.0000          0.0000          0.0000
   1.6600          4.5947          4.5947          4.5947          0.0000          0.0000          0.0000
   1.6800          4.5800          4.5800          4.5800          0.0000          0.0000          0.0000
   1.7000          4.5674          4.5674          4.5674          0.0000          0.0000          0.0000
   1.7200          4.5581          4.5581          4.5581          0.0000          0.0000          0.0000
   1.7400          4.5530          4.5530          4.5530          0.0000          0.0000          0.0000
   1.7600          4.5526          4.5526          4.5526          0.0000          0.0000          0.0000
   1.7800          4.5568          4.5568          4.5568          0.0000          0.0000          0.0000
   1.8000          4.5656          4.5656          4.5656          0.0000          0.0000          0.0000
   1.8200          4.5786          4.5786          4.5786          0.0000          0.0000          0.0000
   1.8400          4.5958          4.5958          4.5958          0.0000          0.0000          0.0000
   1.8600          4.6169          4.6169          4.6169          0.0000          0.0000          0.0000
   1.8800          4.6421          4.6421          4.6421          0.0000          0.0000          0.0000
   1.9000          4.6711          4.6711          4.6711          0.0000          0.0000          0.0000
   1.9200          4.7038          4.7038          4.7038          0.0000          0.0000          0.0000
   1.9400          4.7399          4.7399          4.7399          0.0000          0.0000          0.0000
   1.9600          4.7790          4.7790          4.7790          0.0000          0.0000          0.0000
   1.9800          4.8207          4.8207          4.8207          0.0000          0.0000          0.0000
   2.0000          4.8647          4.8647          4.8647          0.0000          0.0000          0.0000
   2.0200          4.9108          4.9108          4.9108          0.0000          0.0000          0.0000
   2.0400          4.9590          4.9590          4.9590          0.0000          0.0000          0.0000
   2.0600          5.0097          5.0097          5.0097          0.0000          0.0000          0.0000
   2.0800          5.0635          5.0635          5.0635          0.0000          0.0000          0.0000
   2.1000          5.1215          5.1215          5.1215          0.0000          0.0000          0.0000
   2.1200          5.1850          5.1850          5.1850          0.0000          0.0000          0.0000
   2.1400          5.2553          5.2553          5.2553          0.0000          0.0000          0.0000
   2.1600          5.3335          5.3335          5.3335          0.0000          0.0000          0.0000
   2.1800          5.4202          5.4202          5.4202          0.0000          0.0000          0.0000
   2.2000          5.5148          5.5148          5.5148          0.0000          0.0000          0.0000
   2.2200          5.6155          5.6155          5.6155          0.0000          0.0000          0.0000
   2.2400          5.7194          5.7194          5.7194          0.0000          0.0000          0.0000
   2.2600          5.8230          5.8230          5.8230          0.0000          0.0000          0.0000
   2.2800          5.9222          5.9222          5.9222          0.0000          0.0000          0.0000
   2.3000          6.0133          6.0133          6.0133          0.0000          0.0000          0.0000
   2.3200          6.0934          6.0934          6.0934          0.0000          0.0000          0.0000
   2.3400          6.1605          6.1605          6.1605          0.0000          0.0000          0.0000
   2.3600          6.2133          6.2133          6.2133          0.0000          0.0000          0.0000
   2.3800          6.2518          6.2518          6.2518          0.0000          0.0000          0.0000
   2.4000          6.2764          6.2764          6.2764          0.0000          0.0000          0.0000
   2.4200          6.2883          6.2883          6.2883          0.0000          0.0000          0.0000
   2.4400          6.2896          6.2896          6.2896          0.0000          0.0000          0.0000
   2.4600          6.2829          6.2829          6.2829          0.0000          0.0000          0.0000
   2.4800          6.2716          6.2716          6.2716          0.0000          0.0000          0.0000
   2.5000          6.2596          6.2596          6.2596          0.0000          0.0000          0.0000
   2.5200          6.2509          6.2509          6.2509          0.0000          0.0000          0.0000
   2.5400          6.2492          6.2492          6.2492          0.0000          0.0000          0.0000
   2.5600          6.2576          6.2576          6.2576          0.0000          0.0000          0.0000
   2.5800          6.2783          6.2783          6.2783          0.0000          0.0000          0.0000
   2.6000          6.3122          6.3122          6.3122          0.0000          0.0000          0.0000
   2.6200          6.3596          6.3596          6.3596          0.0000          0.0000          0.0000
   2.6400          6.4196          6.4196          6.4196          0.0000          0.0000          0.0000
   2.6600          6.4911          6.4911          6.4911          0.0000          0.0000          0.0000
   2.6800          6.5722          6.5722          6.5722          0.0000          0.0000          0.0000
   2.7000          6.6606          6.6606          6.6606          0.0000          0.0000          0.0000
   2.7200          6.7534          6.7534          6.7534          0.0000          0.0000          0.0000
   2.7400          6.8476          6.8476          6.8476          0.0000          0.0000          0.0000
   2.7600          6.9396          6.9396          6.9396          0.0000          0.0000          0.0000
   2.7800          7.0258          7.0258          7.0258          0.0000          0.0000          0.0000
   2.8000          7.1028          7.1028          7.1028          0.0000          0.0000          0.0000
   2.8200          7.1677          7.1677          7.1677          0.0000          0.0000          0.0000
   2.8400          7.2183          7.2183          7.2183          0.0000          0.0000          0.0000
   2.8600          7.2536          7.2536          7.2536          0.0000          0.0000          0.0000
   2.8800          7.2738          7.2738          7.2738          0.0000          0.0000          0.0000
   2.9000          7.2807          7.2807          7.2807          0.0000          0.0000          0.0000
   2.9200          7.2769          7.2769          7.2769          0.0000          0.0000          0.0000
   2.9400          7.2663          7.2663          7.2663          0.0000          0.0000          0.0000
   2.9600          7.2533          7.2533          7.2533          0.0000          0.0000          0.0000
   2.9800          7.2423          7.2423          7.2423          0.0000          0.0000          0.0000
   3.0000          7.2369          7.2369          7.2369          0.0000          0.0000          0.0000
   3.0200          7.2401          7.2401          7.2401          0.0000          0.0000          0.0000
   3.0400          7.2532          7.2532          7.2532          0.0000          0.0000          0.0000
   3.0600          7.2763          7.2763          7.2763          0.0000          0.0000          0.0000
   3.0800          7.3080          7.3080          7.3080          0.0000          0.0000          0.0000
   3.1000          7.3464          7.3464          7.3464          0.0000          0.0000          0.0000
   3.1200          7.3889          7.3889          7.3889          0.0000          0.0000          0.0000
   3.1400          7.4331          7.4331          7.4331          0.0000          0.0000          0.0000
   3.1600          7.4766          7.4766          7.4766          0.0000          0.0000          0.0000
   3.1800          7.5178          7.5178          7.5178          0.0000          0.0000          0.0000
   3.2000          7.5556          7.5556          7.5556          0.0000          0.0000          0.0000
   3.2200          7.5898          7.5898          7.5898          0.0000          0.0000          0.0000
   3.2400          7.6210          7.6210          7.6210          0.0000          0.0000          0.0000
   3.2600          7.6507          7.6507          7.6507          0.0000          0.0000          0.0000
   3.2800          7.6813          7.6813          7.6813          0.0000          0.0000          0.0000
   3.3000          7.7156          7.7156          7.7156          0.0000          0.0000          0.0000
   3.3200          7.7562          7.7562          7.7562          0.0000          0.0000          0.0000
   3.3400          7.8051          7.8051          7.8051          0.0000          0.0000          0.0000
   3.3600          7.8625          7.8625          7.8625          0.0000          0.0000          0.0000
   3.3800          7.9271          7.9271          7.9271          0.0000          0.0000          0.0000
   3.4000          7.9959          7.9959          7.9959          0.0000          0.0000          0.0000
   3.4200          8.0652          8.0652          8.0652          0.0000          0.0000          0.0000
   3.4400          8.1312          8.1312          8.1312          0.0000          0.0000          0.0000
   3.4600          8.1910          8.1910          8.1910          0.0000          0.0000          0.0000
   3.4800          8.2437          8.2437          8.2437          0.0000          0.0000          0.0000
   3.5000          8.2897          8.2897          8.2897          0.0000          0.0000          0.0000
   3.5200          8.3315          8.3315          8.3315          0.0000          0.0000          0.0000
   3.5400          8.3723          8.3723          8.3723          0.0000          0.0000          0.0000
   3.5600          8.4151          8.4151          8.4151          0.0000          0.0000          0.0000
   3.5800          8.4621          8.4621          8.4621          0.0000          0.0000          0.0000
   3.6000          8.5138          8.5138          8.5138          0.0000          0.0000          0.0000
   3.6200          8.5691          8.5691          8.5691          0.0000          0.0000          0.0000
   3.6400          8.6250          8.6250          8.6250          0.0000          0.0000          0.0000
   3.6600          8.6777          8.6777          8.6777          0.0000          0.0000          0.0000
   3.6800          8.7230          8.7230          8.7230          0.0000          0.0000          0.0000
   3.7000          8.7574          8.7574          8.7574          0.0000          0.0000          0.0000
   3.7200          8.7785          8.7785          8.7785          0.0000          0.0000          0.0000
   3.7400          8.7857          8.7857          8.7857          0.0000          0.0000          0.0000
