### electron energy loss spectra
   0.0000          0.0003          0.0003          0.0003
   0.0200          0.0005          0.0005          0.0005
   0.0400          0.0011          0.0011          0.0011
   0.0600          0.0016          0.0016          0.0016
   0.0800          0.0021          0.0021          0.0021
   0.1000          0.0027          0.0027          0.0027
   0.1200          0.0032          0.0032          0.0032
   0.1400          0.0037          0.0037          0.0037
   0.1600          0.0043          0.0043          0.0043
   0.1800          0.0048          0.0048          0.0048
   0.2000          0.0053          0.0053          0.0053
   0.2200          0.0059          0.0059          0.0059
   0.2400          0.0064          0.0064          0.0064
   0.2600          0.0070          0.0070          0.0070
   0.2800          0.0075          0.0075          0.0075
   0.3000          0.0081          0.0081          0.0081
   0.3200          0.0086          0.0086          0.0086
   0.3400          0.0092          0.0092          0.0092
   0.3600          0.0098          0.0098          0.0098
   0.3800          0.0103          0.0103          0.0103
   0.4000          0.0109          0.0109          0.0109
   0.4200          0.0115          0.0115          0.0115
   0.4400          0.0121          0.0121          0.0121
   0.4600          0.0127          0.0127          0.0127
   0.4800          0.0133          0.0133          0.0133
   0.5000          0.0139          0.0139          0.0139
   0.5200          0.0145          0.0145          0.0145
   0.5400          0.0151          0.0151          0.0151
   0.5600          0.0157          0.0157          0.0157
   0.5800          0.0164          0.0164          0.0164
   0.6000          0.0170          0.0170          0.0170
   0.6200          0.0176          0.0176          0.0176
   0.6400          0.0183          0.0183          0.0183
   0.6600          0.0190          0.0190          0.0190
   0.6800          0.0196          0.0196          0.0196
   0.7000          0.0203          0.0203          0.0203
   0.7200          0.0210          0.0210          0.0210
   0.7400          0.0217          0.0217          0.0217
   0.7600          0.0224          0.0224          0.0224
   0.7800          0.0232          0.0232          0.0232
   0.8000          0.0239          0.0239          0.0239
   0.8200          0.0246          0.0246          0.0246
   0.8400          0.0254          0.0254          0.0254
   0.8600          0.0262          0.0262          0.0262
   0.8800          0.0270          0.0270          0.0270
   0.9000          0.0278          0.0278          0.0278
   0.9200          0.0286          0.0286          0.0286
   0.9400          0.0294          0.0294          0.0294
   0.9600          0.0303          0.0303          0.0303
   0.9800          0.0311          0.0311          0.0311
   1.0000          0.0320          0.0320          0.0320
   1.0200          0.0329          0.0329          0.0329
   1.0400          0.0338          0.0338          0.0338
   1.0600          0.0347          0.0347          0.0347
   1.0800          0.0357          0.0357          0.0357
   1.1000          0.0366          0.0366          0.0366
   1.1200          0.0376          0.0376          0.0376
   1.1400          0.0386          0.0386          0.0386
   1.1600          0.0396          0.0396          0.0396
   1.1800          0.0407          0.0407          0.0407
   1.2000          0.0417          0.0417          0.0417
   1.2200          0.0427          0.0427          0.0427
   1.2400          0.0438          0.0438          0.0438
   1.2600          0.0449          0.0449          0.0449
   1.2800          0.0459          0.0459          0.0459
   1.3000          0.0469          0.0469          0.0469
   1.3200          0.0480          0.0480          0.0480
   1.3400          0.0490          0.0490          0.0490
   1.3600          0.0499          0.0499          0.0499
   1.3800          0.0508          0.0508          0.0508
   1.4000          0.0517          0.0517          0.0517
   1.4200          0.0525          0.0525          0.0525
   1.4400          0.0533          0.0533          0.0533
   1.4600          0.0541          0.0541          0.0541
   1.4800          0.0549          0.0549          0.0549
   1.5000          0.0558          0.0558          0.0558
   1.5200          0.0567          0.0567          0.0567
   1.5400          0.0576          0.0576          0.0576
   1.5600          0.0587          0.0587          0.0587
   1.5800          0.0598          0.0598          0.0598
   1.6000          0.0609          0.0609          0.0609
   1.6200          0.0620          0.0620          0.0620
   1.6400          0.0631          0.0631          0.0631
   1.6600          0.0641          0.0641          0.0641
   1.6800          0.0650          0.0650          0.0650
   1.7000          0.0657          0.0657          0.0657
   1.7200          0.0662          0.0662          0.0662
   1.7400          0.0666          0.0666          0.0666
   1.7600          0.0669          0.0669          0.0669
   1.7800          0.0670          0.0670          0.0670
   1.8000          0.0671          0.0671          0.0671
   1.8200          0.0671          0.0671          0.0671
   1.8400          0.0670          0.0670          0.0670
   1.8600          0.0668          0.0668          0.0668
   1.8800          0.0666          0.0666          0.0666
   1.9000          0.0664          0.0664          0.0664
   1.9200          0.0662          0.0662          0.0662
   1.9400          0.0659          0.0659          0.0659
   1.9600          0.0657          0.0657          0.0657
   1.9800          0.0654          0.0654          0.0654
   2.0000          0.0652          0.0652          0.0652
   2.0200          0.0649          0.0649          0.0649
   2.0400          0.0647          0.0647          0.0647
   2.0600          0.0644          0.0644          0.0644
   2.0800          0.0642          0.0642          0.0642
   2.1000          0.0639          0.0639          0.0639
   2.1200          0.0635          0.0635          0.0635
   2.1400          0.0632          0.0632          0.0632
   2.1600          0.0628          0.0628          0.0628
   2.1800          0.0625          0.0625          0.0625
   2.2000          0.0622          0.0622          0.0622
   2.2200          0.0621          0.0621          0.0621
   2.2400          0.0620          0.0620          0.0620
   2.2600          0.0622          0.0622          0.0622
   2.2800          0.0625          0.0625          0.0625
   2.3000          0.0630          0.0630          0.0630
   2.3200          0.0637          0.0637          0.0637
   2.3400          0.0645          0.0645          0.0645
   2.3600          0.0655          0.0655          0.0655
   2.3800          0.0665          0.0665          0.0665
   2.4000          0.0677          0.0677          0.0677
   2.4200          0.0689          0.0689          0.0689
   2.4400          0.0701          0.0701          0.0701
   2.4600          0.0713          0.0713          0.0713
   2.4800          0.0723          0.0723          0.0723
   2.5000          0.0732          0.0732          0.0732
   2.5200          0.0739          0.0739          0.0739
   2.5400          0.0743          0.0743          0.0743
   2.5600          0.0745          0.0745          0.0745
   2.5800          0.0745          0.0745          0.0745
   2.6000          0.0743          0.0743          0.0743
   2.6200          0.0740          0.0740          0.0740
   2.6400          0.0737          0.0737          0.0737
   2.6600          0.0734          0.0734          0.0734
   2.6800          0.0731          0.0731          0.0731
   2.7000          0.0729          0.0729          0.0729
   2.7200          0.0728          0.0728          0.0728
   2.7400          0.0728          0.0728          0.0728
   2.7600          0.0731          0.0731          0.0731
   2.7800          0.0735          0.0735          0.0735
   2.8000          0.0741          0.0741          0.0741
   2.8200          0.0748          0.0748          0.0748
   2.8400          0.0758          0.0758          0.0758
   2.8600          0.0769          0.0769          0.0769
   2.8800          0.0782          0.0782          0.0782
   2.9000          0.0795          0.0795          0.0795
   2.9200          0.0808          0.0808          0.0808
   2.9400          0.0820          0.0820          0.0820
   2.9600          0.0832          0.0832          0.0832
   2.9800          0.0841          0.0841          0.0841
   3.0000          0.0849          0.0849          0.0849
   3.0200          0.0854          0.0854          0.0854
   3.0400          0.0858          0.0858          0.0858
   3.0600          0.0861          0.0861          0.0861
   3.0800          0.0862          0.0862          0.0862
   3.1000          0.0864          0.0864          0.0864
   3.1200          0.0866          0.0866          0.0866
   3.1400          0.0869          0.0869          0.0869
   3.1600          0.0872          0.0872          0.0872
   3.1800          0.0876          0.0876          0.0876
   3.2000          0.0880          0.0880          0.0880
   3.2200          0.0885          0.0885          0.0885
   3.2400          0.0890          0.0890          0.0890
   3.2600          0.0894          0.0894          0.0894
   3.2800          0.0898          0.0898          0.0898
   3.3000          0.0901          0.0901          0.0901
   3.3200          0.0902          0.0902          0.0902
   3.3400          0.0903          0.0903          0.0903
   3.3600          0.0903          0.0903          0.0903
   3.3800          0.0904          0.0904          0.0904
   3.4000          0.0904          0.0904          0.0904
   3.4200          0.0906          0.0906          0.0906
   3.4400          0.0909          0.0909          0.0909
   3.4600          0.0914          0.0914          0.0914
   3.4800          0.0919          0.0919          0.0919
   3.5000          0.0925          0.0925          0.0925
   3.5200          0.0932          0.0932          0.0932
   3.5400          0.0938          0.0938          0.0938
   3.5600          0.0943          0.0943          0.0943
   3.5800          0.0948          0.0948          0.0948
   3.6000          0.0952          0.0952          0.0952
   3.6200          0.0957          0.0957          0.0957
   3.6400          0.0963          0.0963          0.0963
   3.6600          0.0970          0.0970          0.0970
   3.6800          0.0978          0.0978          0.0978
   3.7000          0.0989          0.0989          0.0989
   3.7200          0.1002          0.1002          0.1002
   3.7400          0.1016          0.1016          0.1016
   3.7600          0.1032          0.1032          0.1032
   3.7800          0.1049          0.1049          0.1049
   3.8000          0.1065          0.1065          0.1065
   3.8200          0.1081          0.1081          0.1081
   3.8400          0.1096          0.1096          0.1096
   3.8600          0.1110          0.1110          0.1110
   3.8800          0.1122          0.1122          0.1122
   3.9000          0.1133          0.1133          0.1133
   3.9200          0.1142          0.1142          0.1142
   3.9400          0.1148          0.1148          0.1148
   3.9600          0.1152          0.1152          0.1152
   3.9800          0.1154          0.1154          0.1154
   4.0000          0.1153          0.1153          0.1153
   4.0200          0.1151          0.1151          0.1151
   4.0400          0.1149          0.1149          0.1149
   4.0600          0.1149          0.1149          0.1149
   4.0800          0.1151          0.1151          0.1151
   4.1000          0.1156          0.1156          0.1156
   4.1200          0.1165          0.1165          0.1165
   4.1400          0.1177          0.1177          0.1177
   4.1600          0.1192          0.1192          0.1192
   4.1800          0.1210          0.1210          0.1210
   4.2000          0.1231          0.1231          0.1231
   4.2200          0.1252          0.1252          0.1252
   4.2400          0.1273          0.1273          0.1273
   4.2600          0.1294          0.1294          0.1294
   4.2800          0.1314          0.1314          0.1314
   4.3000          0.1333          0.1333          0.1333
   4.3200          0.1350          0.1350          0.1350
   4.3400          0.1364          0.1364          0.1364
   4.3600          0.1377          0.1377          0.1377
   4.3800          0.1388          0.1388          0.1388
   4.4000          0.1397          0.1397          0.1397
   4.4200          0.1404          0.1404          0.1404
   4.4400          0.1411          0.1411          0.1411
   4.4600          0.1418          0.1418          0.1418
   4.4800          0.1425          0.1425          0.1425
   4.5000          0.1433          0.1433          0.1433
   4.5200          0.1443          0.1443          0.1443
   4.5400          0.1454          0.1454          0.1454
   4.5600          0.1466          0.1466          0.1466
   4.5800          0.1480          0.1480          0.1480
   4.6000          0.1495          0.1495          0.1495
   4.6200          0.1511          0.1511          0.1511
   4.6400          0.1526          0.1526          0.1526
   4.6600          0.1541          0.1541          0.1541
   4.6800          0.1554          0.1554          0.1554
   4.7000          0.1566          0.1566          0.1566
   4.7200          0.1576          0.1576          0.1576
   4.7400          0.1584          0.1584          0.1584
   4.7600          0.1589          0.1589          0.1589
   4.7800          0.1592          0.1592          0.1592
   4.8000          0.1593          0.1593          0.1593
   4.8200          0.1592          0.1592          0.1592
   4.8400          0.1592          0.1592          0.1592
   4.8600          0.1592          0.1592          0.1592
   4.8800          0.1593          0.1593          0.1593
   4.9000          0.1595          0.1595          0.1595
   4.9200          0.1599          0.1599          0.1599
   4.9400          0.1604          0.1604          0.1604
   4.9600          0.1609          0.1609          0.1609
   4.9800          0.1615          0.1615          0.1615
   5.0000          0.1620          0.1620          0.1620
   5.0200          0.1625          0.1625          0.1625
   5.0400          0.1629          0.1629          0.1629
   5.0600          0.1633          0.1633          0.1633
   5.0800          0.1638          0.1638          0.1638
   5.1000          0.1644          0.1644          0.1644
   5.1200          0.1650          0.1650          0.1650
   5.1400          0.1657          0.1657          0.1657
   5.1600          0.1664          0.1664          0.1664
   5.1800          0.1670          0.1670          0.1670
   5.2000          0.1676          0.1676          0.1676
   5.2200          0.1681          0.1681          0.1681
   5.2400          0.1686          0.1686          0.1686
   5.2600          0.1690          0.1690          0.1690
   5.2800          0.1694          0.1694          0.1694
   5.3000          0.1698          0.1698          0.1698
   5.3200          0.1704          0.1704          0.1704
   5.3400          0.1709          0.1709          0.1709
   5.3600          0.1716          0.1716          0.1716
   5.3800          0.1723          0.1723          0.1723
   5.4000          0.1730          0.1730          0.1730
   5.4200          0.1737          0.1737          0.1737
   5.4400          0.1743          0.1743          0.1743
   5.4600          0.1750          0.1750          0.1750
   5.4800          0.1756          0.1756          0.1756
   5.5000          0.1764          0.1764          0.1764
   5.5200          0.1772          0.1772          0.1772
   5.5400          0.1781          0.1781          0.1781
   5.5600          0.1792          0.1792          0.1792
   5.5800          0.1804          0.1804          0.1804
   5.6000          0.1818          0.1818          0.1818
   5.6200          0.1833          0.1833          0.1833
   5.6400          0.1848          0.1848          0.1848
   5.6600          0.1863          0.1863          0.1863
   5.6800          0.1877          0.1877          0.1877
   5.7000          0.1890          0.1890          0.1890
   5.7200          0.1900          0.1900          0.1900
   5.7400          0.1908          0.1908          0.1908
   5.7600          0.1912          0.1912          0.1912
   5.7800          0.1914          0.1914          0.1914
   5.8000          0.1913          0.1913          0.1913
   5.8200          0.1910          0.1910          0.1910
   5.8400          0.1906          0.1906          0.1906
   5.8600          0.1901          0.1901          0.1901
   5.8800          0.1896          0.1896          0.1896
   5.9000          0.1890          0.1890          0.1890
   5.9200          0.1884          0.1884          0.1884
   5.9400          0.1878          0.1878          0.1878
   5.9600          0.1871          0.1871          0.1871
   5.9800          0.1864          0.1864          0.1864
   6.0000          0.1857          0.1857          0.1857
   6.0200          0.1850          0.1850          0.1850
   6.0400          0.1844          0.1844          0.1844
   6.0600          0.1839          0.1839          0.1839
   6.0800          0.1835          0.1835          0.1835
   6.1000          0.1833          0.1833          0.1833
   6.1200          0.1831          0.1831          0.1831
   6.1400          0.1828          0.1828          0.1828
   6.1600          0.1824          0.1824          0.1824
   6.1800          0.1819          0.1819          0.1819
   6.2000          0.1810          0.1810          0.1810
   6.2200          0.1800          0.1800          0.1800
   6.2400          0.1787          0.1787          0.1787
   6.2600          0.1773          0.1773          0.1773
   6.2800          0.1757          0.1757          0.1757
   6.3000          0.1741          0.1741          0.1741
   6.3200          0.1724          0.1724          0.1724
   6.3400          0.1707          0.1707          0.1707
   6.3600          0.1688          0.1688          0.1688
   6.3800          0.1669          0.1669          0.1669
   6.4000          0.1649          0.1649          0.1649
   6.4200          0.1629          0.1629          0.1629
   6.4400          0.1609          0.1609          0.1609
   6.4600          0.1591          0.1591          0.1591
   6.4800          0.1575          0.1575          0.1575
   6.5000          0.1562          0.1562          0.1562
   6.5200          0.1553          0.1553          0.1553
   6.5400          0.1548          0.1548          0.1548
   6.5600          0.1548          0.1548          0.1548
   6.5800          0.1552          0.1552          0.1552
   6.6000          0.1559          0.1559          0.1559
   6.6200          0.1570          0.1570          0.1570
   6.6400          0.1584          0.1584          0.1584
   6.6600          0.1599          0.1599          0.1599
   6.6800          0.1614          0.1614          0.1614
   6.7000          0.1631          0.1631          0.1631
   6.7200          0.1646          0.1646          0.1646
   6.7400          0.1661          0.1661          0.1661
   6.7600          0.1675          0.1675          0.1675
   6.7800          0.1688          0.1688          0.1688
   6.8000          0.1698          0.1698          0.1698
   6.8200          0.1706          0.1706          0.1706
   6.8400          0.1712          0.1712          0.1712
   6.8600          0.1716          0.1716          0.1716
