### real part of conductivity (in units of 10^15 sec^-1)
   0.0000          0.0000          0.0000          0.0000          0.0000          0.0000          0.0000
   0.0200          4.5551          4.5551          4.5551          0.0000          0.0000          0.0000
   0.0400          4.5538          4.5538          4.5538          0.0000          0.0000          0.0000
   0.0600          4.5516          4.5516          4.5516          0.0000          0.0000          0.0000
   0.0800          4.5484          4.5484          4.5484          0.0000          0.0000          0.0000
   0.1000          4.5444          4.5444          4.5444          0.0000          0.0000          0.0000
   0.1200          4.5395          4.5395          4.5395          0.0000          0.0000          0.0000
   0.1400          4.5337          4.5337          4.5337          0.0000          0.0000          0.0000
   0.1600          4.5271          4.5271          4.5271          0.0000          0.0000          0.0000
   0.1800          4.5196          4.5196          4.5196          0.0000          0.0000          0.0000
   0.2000          4.5112          4.5112          4.5112          0.0000          0.0000          0.0000
   0.2200          4.5021          4.5021          4.5021          0.0000          0.0000          0.0000
   0.2400          4.4920          4.4920          4.4920          0.0000          0.0000          0.0000
   0.2600          4.4812          4.4812          4.4812          0.0000          0.0000          0.0000
   0.2800          4.4695          4.4695          4.4695          0.0000          0.0000          0.0000
   0.3000          4.4571          4.4571          4.4571          0.0000          0.0000          0.0000
   0.3200          4.4439          4.4439          4.4439          0.0000          0.0000          0.0000
   0.3400          4.4299          4.4299          4.4299          0.0000          0.0000          0.0000
   0.3600          4.4152          4.4152          4.4152          0.0000          0.0000          0.0000
   0.3800          4.3997          4.3997          4.3997          0.0000          0.0000          0.0000
   0.4000          4.3836          4.3836          4.3836          0.0000          0.0000          0.0000
   0.4200          4.3667          4.3667          4.3667          0.0000          0.0000          0.0000
   0.4400          4.3492          4.3492          4.3492          0.0000          0.0000          0.0000
   0.4600          4.3310          4.3310          4.3310          0.0000          0.0000          0.0000
   0.4800          4.3122          4.3122          4.3122          0.0000          0.0000          0.0000
   0.5000          4.2928          4.2928          4.2928          0.0000          0.0000          0.0000
   0.5200          4.2728          4.2728          4.2728          0.0000          0.0000          0.0000
   0.5400          4.2522          4.2522          4.2522          0.0000          0.0000          0.0000
   0.5600          4.2311          4.2311          4.2311          0.0000          0.0000          0.0000
   0.5800          4.2094          4.2094          4.2094          0.0000          0.0000          0.0000
   0.6000          4.1873          4.1873          4.1873          0.0000          0.0000          0.0000
   0.6200          4.1646          4.1646          4.1646          0.0000          0.0000          0.0000
   0.6400          4.1415          4.1415          4.1415          0.0000          0.0000          0.0000
   0.6600          4.1180          4.1180          4.1180          0.0000          0.0000          0.0000
   0.6800          4.0941          4.0941          4.0941          0.0000          0.0000          0.0000
   0.7000          4.0697          4.0697          4.0697          0.0000          0.0000          0.0000
   0.7200          4.0451          4.0451          4.0451          0.0000          0.0000          0.0000
   0.7400          4.0200          4.0200          4.0200          0.0000          0.0000          0.0000
   0.7600          3.9947          3.9947          3.9947          0.0000          0.0000          0.0000
   0.7800          3.9691          3.9691          3.9691          0.0000          0.0000          0.0000
   0.8000          3.9432          3.9432          3.9432          0.0000          0.0000          0.0000
   0.8200          3.9170          3.9170          3.9170          0.0000          0.0000          0.0000
   0.8400          3.8907          3.8907          3.8907          0.0000          0.0000          0.0000
   0.8600          3.8642          3.8642          3.8642          0.0000          0.0000          0.0000
   0.8800          3.8375          3.8375          3.8375          0.0000          0.0000          0.0000
   0.9000          3.8106          3.8106          3.8106          0.0000          0.0000          0.0000
   0.9200          3.7837          3.7837          3.7837          0.0000          0.0000          0.0000
   0.9400          3.7567          3.7567          3.7567          0.0000          0.0000          0.0000
   0.9600          3.7296          3.7296          3.7296          0.0000          0.0000          0.0000
   0.9800          3.7025          3.7025          3.7025          0.0000          0.0000          0.0000
   1.0000          3.6755          3.6755          3.6755          0.0000          0.0000          0.0000
   1.0200          3.6485          3.6485          3.6485          0.0000          0.0000          0.0000
   1.0400          3.6215          3.6215          3.6215          0.0000          0.0000          0.0000
   1.0600          3.5947          3.5947          3.5947          0.0000          0.0000          0.0000
   1.0800          3.5681          3.5681          3.5681          0.0000          0.0000          0.0000
   1.1000          3.5417          3.5417          3.5417          0.0000          0.0000          0.0000
   1.1200          3.5156          3.5156          3.5156          0.0000          0.0000          0.0000
   1.1400          3.4898          3.4898          3.4898          0.0000          0.0000          0.0000
   1.1600          3.4645          3.4645          3.4645          0.0000          0.0000          0.0000
   1.1800          3.4398          3.4398          3.4398          0.0000          0.0000          0.0000
   1.2000          3.4157          3.4157          3.4157          0.0000          0.0000          0.0000
   1.2200          3.3926          3.3926          3.3926          0.0000          0.0000          0.0000
   1.2400          3.3704          3.3704          3.3704          0.0000          0.0000          0.0000
   1.2600          3.3496          3.3496          3.3496          0.0000          0.0000          0.0000
   1.2800          3.3304          3.3304          3.3304          0.0000          0.0000          0.0000
   1.3000          3.3131          3.3131          3.3131          0.0000          0.0000          0.0000
   1.3200          3.2980          3.2980          3.2980          0.0000          0.0000          0.0000
   1.3400          3.2854          3.2854          3.2854          0.0000          0.0000          0.0000
   1.3600          3.2755          3.2755          3.2755          0.0000          0.0000          0.0000
   1.3800          3.2684          3.2684          3.2684          0.0000          0.0000          0.0000
   1.4000          3.2637          3.2637          3.2637          0.0000          0.0000          0.0000
   1.4200          3.2610          3.2610          3.2610          0.0000          0.0000          0.0000
   1.4400          3.2595          3.2595          3.2595          0.0000          0.0000          0.0000
   1.4600          3.2579          3.2579          3.2579          0.0000          0.0000          0.0000
   1.4800          3.2551          3.2551          3.2551          0.0000          0.0000          0.0000
   1.5000          3.2498          3.2498          3.2498          0.0000          0.0000          0.0000
   1.5200          3.2413          3.2413          3.2413          0.0000          0.0000          0.0000
   1.5400          3.2292          3.2292          3.2292          0.0000          0.0000          0.0000
   1.5600          3.2135          3.2135          3.2135          0.0000          0.0000          0.0000
   1.5800          3.1951          3.1951          3.1951          0.0000          0.0000          0.0000
   1.6000          3.1754          3.1754          3.1754          0.0000          0.0000          0.0000
   1.6200          3.1559          3.1559          3.1559          0.0000          0.0000          0.0000
   1.6400          3.1384          3.1384          3.1384          0.0000          0.0000          0.0000
   1.6600          3.1244          3.1244          3.1244          0.0000          0.0000          0.0000
   1.6800          3.1152          3.1152          3.1152          0.0000          0.0000          0.0000
   1.7000          3.1115          3.1115          3.1115          0.0000          0.0000          0.0000
   1.7200          3.1135          3.1135          3.1135          0.0000          0.0000          0.0000
   1.7400          3.1209          3.1209          3.1209          0.0000          0.0000          0.0000
   1.7600          3.1333          3.1333          3.1333          0.0000          0.0000          0.0000
   1.7800          3.1500          3.1500          3.1500          0.0000          0.0000          0.0000
   1.8000          3.1705          3.1705          3.1705          0.0000          0.0000          0.0000
   1.8200          3.1943          3.1943          3.1943          0.0000          0.0000          0.0000
   1.8400          3.2212          3.2212          3.2212          0.0000          0.0000          0.0000
   1.8600          3.2509          3.2509          3.2509          0.0000          0.0000          0.0000
   1.8800          3.2833          3.2833          3.2833          0.0000          0.0000          0.0000
   1.9000          3.3180          3.3180          3.3180          0.0000          0.0000          0.0000
   1.9200          3.3549          3.3549          3.3549          0.0000          0.0000          0.0000
   1.9400          3.3934          3.3934          3.3934          0.0000          0.0000          0.0000
   1.9600          3.4332          3.4332          3.4332          0.0000          0.0000          0.0000
   1.9800          3.4741          3.4741          3.4741          0.0000          0.0000          0.0000
   2.0000          3.5160          3.5160          3.5160          0.0000          0.0000          0.0000
   2.0200          3.5589          3.5589          3.5589          0.0000          0.0000          0.0000
   2.0400          3.6031          3.6031          3.6031          0.0000          0.0000          0.0000
   2.0600          3.6492          3.6492          3.6492          0.0000          0.0000          0.0000
   2.0800          3.6978          3.6978          3.6978          0.0000          0.0000          0.0000
   2.1000          3.7497          3.7497          3.7497          0.0000          0.0000          0.0000
   2.1200          3.8057          3.8057          3.8057          0.0000          0.0000          0.0000
   2.1400          3.8662          3.8662          3.8662          0.0000          0.0000          0.0000
   2.1600          3.9310          3.9310          3.9310          0.0000          0.0000          0.0000
   2.1800          3.9990          3.9990          3.9990          0.0000          0.0000          0.0000
   2.2000          4.0681          4.0681          4.0681          0.0000          0.0000          0.0000
   2.2200          4.1350          4.1350          4.1350          0.0000          0.0000          0.0000
   2.2400          4.1962          4.1962          4.1962          0.0000          0.0000          0.0000
   2.2600          4.2481          4.2481          4.2481          0.0000          0.0000          0.0000
   2.2800          4.2877          4.2877          4.2877          0.0000          0.0000          0.0000
   2.3000          4.3131          4.3131          4.3131          0.0000          0.0000          0.0000
   2.3200          4.3238          4.3238          4.3238          0.0000          0.0000          0.0000
   2.3400          4.3205          4.3205          4.3205          0.0000          0.0000          0.0000
   2.3600          4.3049          4.3049          4.3049          0.0000          0.0000          0.0000
   2.3800          4.2793          4.2793          4.2793          0.0000          0.0000          0.0000
   2.4000          4.2466          4.2466          4.2466          0.0000          0.0000          0.0000
   2.4200          4.2097          4.2097          4.2097          0.0000          0.0000          0.0000
   2.4400          4.1719          4.1719          4.1719          0.0000          0.0000          0.0000
   2.4600          4.1366          4.1366          4.1366          0.0000          0.0000          0.0000
   2.4800          4.1069          4.1069          4.1069          0.0000          0.0000          0.0000
   2.5000          4.0856          4.0856          4.0856          0.0000          0.0000          0.0000
   2.5200          4.0748          4.0748          4.0748          0.0000          0.0000          0.0000
   2.5400          4.0759          4.0759          4.0759          0.0000          0.0000          0.0000
   2.5600          4.0891          4.0891          4.0891          0.0000          0.0000          0.0000
   2.5800          4.1140          4.1140          4.1140          0.0000          0.0000          0.0000
   2.6000          4.1492          4.1492          4.1492          0.0000          0.0000          0.0000
   2.6200          4.1929          4.1929          4.1929          0.0000          0.0000          0.0000
   2.6400          4.2428          4.2428          4.2428          0.0000          0.0000          0.0000
   2.6600          4.2965          4.2965          4.2965          0.0000          0.0000          0.0000
   2.6800          4.3514          4.3514          4.3514          0.0000          0.0000          0.0000
   2.7000          4.4044          4.4044          4.4044          0.0000          0.0000          0.0000
   2.7200          4.4528          4.4528          4.4528          0.0000          0.0000          0.0000
   2.7400          4.4937          4.4937          4.4937          0.0000          0.0000          0.0000
   2.7600          4.5245          4.5245          4.5245          0.0000          0.0000          0.0000
   2.7800          4.5432          4.5432          4.5432          0.0000          0.0000          0.0000
   2.8000          4.5485          4.5485          4.5485          0.0000          0.0000          0.0000
   2.8200          4.5404          4.5404          4.5404          0.0000          0.0000          0.0000
   2.8400          4.5199          4.5199          4.5199          0.0000          0.0000          0.0000
   2.8600          4.4890          4.4890          4.4890          0.0000          0.0000          0.0000
   2.8800          4.4509          4.4509          4.4509          0.0000          0.0000          0.0000
   2.9000          4.4092          4.4092          4.4092          0.0000          0.0000          0.0000
   2.9200          4.3679          4.3679          4.3679          0.0000          0.0000          0.0000
   2.9400          4.3306          4.3306          4.3306          0.0000          0.0000          0.0000
   2.9600          4.3003          4.3003          4.3003          0.0000          0.0000          0.0000
   2.9800          4.2791          4.2791          4.2791          0.0000          0.0000          0.0000
   3.0000          4.2680          4.2680          4.2680          0.0000          0.0000          0.0000
   3.0200          4.2667          4.2667          4.2667          0.0000          0.0000          0.0000
   3.0400          4.2739          4.2739          4.2739          0.0000          0.0000          0.0000
   3.0600          4.2875          4.2875          4.2875          0.0000          0.0000          0.0000
   3.0800          4.3051          4.3051          4.3051          0.0000          0.0000          0.0000
   3.1000          4.3241          4.3241          4.3241          0.0000          0.0000          0.0000
   3.1200          4.3424          4.3424          4.3424          0.0000          0.0000          0.0000
   3.1400          4.3584          4.3584          4.3584          0.0000          0.0000          0.0000
   3.1600          4.3712          4.3712          4.3712          0.0000          0.0000          0.0000
   3.1800          4.3805          4.3805          4.3805          0.0000          0.0000          0.0000
   3.2000          4.3868          4.3868          4.3868          0.0000          0.0000          0.0000
   3.2200          4.3911          4.3911          4.3911          0.0000          0.0000          0.0000
   3.2400          4.3949          4.3949          4.3949          0.0000          0.0000          0.0000
   3.2600          4.4000          4.4000          4.4000          0.0000          0.0000          0.0000
   3.2800          4.4085          4.4085          4.4085          0.0000          0.0000          0.0000
   3.3000          4.4218          4.4218          4.4218          0.0000          0.0000          0.0000
   3.3200          4.4405          4.4405          4.4405          0.0000          0.0000          0.0000
   3.3400          4.4641          4.4641          4.4641          0.0000          0.0000          0.0000
   3.3600          4.4908          4.4908          4.4908          0.0000          0.0000          0.0000
   3.3800          4.5179          4.5179          4.5179          0.0000          0.0000          0.0000
   3.4000          4.5423          4.5423          4.5423          0.0000          0.0000          0.0000
   3.4200          4.5613          4.5613          4.5613          0.0000          0.0000          0.0000
   3.4400          4.5732          4.5732          4.5732          0.0000          0.0000          0.0000
   3.4600          4.5778          4.5778          4.5778          0.0000          0.0000          0.0000
   3.4800          4.5766          4.5766          4.5766          0.0000          0.0000          0.0000
   3.5000          4.5718          4.5718          4.5718          0.0000          0.0000          0.0000
   3.5200          4.5663          4.5663          4.5663          0.0000          0.0000          0.0000
   3.5400          4.5622          4.5622          4.5622          0.0000          0.0000          0.0000
   3.5600          4.5608          4.5608          4.5608          0.0000          0.0000          0.0000
   3.5800          4.5617          4.5617          4.5617          0.0000          0.0000          0.0000
   3.6000          4.5633          4.5633          4.5633          0.0000          0.0000          0.0000
   3.6200          4.5631          4.5631          4.5631          0.0000          0.0000          0.0000
   3.6400          4.5581          4.5581          4.5581          0.0000          0.0000          0.0000
   3.6600          4.5455          4.5455          4.5455          0.0000          0.0000          0.0000
   3.6800          4.5238          4.5238          4.5238          0.0000          0.0000          0.0000
   3.7000          4.4927          4.4927          4.4927          0.0000          0.0000          0.0000
   3.7200          4.4532          4.4532          4.4532          0.0000          0.0000          0.0000
   3.7400          4.4077          4.4077          4.4077          0.0000          0.0000          0.0000
