### imag part of conductivity (in units of 10^15 sec^-1)
   0.0000          3.2898          3.2898          3.2898          0.0000          0.0000          0.0000
   0.0200          3.3135          3.3135          3.3135          0.0000          0.0000          0.0000
   0.0400          3.3372          3.3372          3.3372          0.0000          0.0000          0.0000
   0.0600          3.3608          3.3608          3.3608          0.0000          0.0000          0.0000
   0.0800          3.3843          3.3843          3.3843          0.0000          0.0000          0.0000
   0.1000          3.4077          3.4077          3.4077          0.0000          0.0000          0.0000
   0.1200          3.4309          3.4309          3.4309          0.0000          0.0000          0.0000
   0.1400          3.4539          3.4539          3.4539          0.0000          0.0000          0.0000
   0.1600          3.4767          3.4767          3.4767          0.0000          0.0000          0.0000
   0.1800          3.4993          3.4993          3.4993          0.0000          0.0000          0.0000
   0.2000          3.5216          3.5216          3.5216          0.0000          0.0000          0.0000
   0.2200          3.5435          3.5435          3.5435          0.0000          0.0000          0.0000
   0.2400          3.5652          3.5652          3.5652          0.0000          0.0000          0.0000
   0.2600          3.5864          3.5864          3.5864          0.0000          0.0000          0.0000
   0.2800          3.6073          3.6073          3.6073          0.0000          0.0000          0.0000
   0.3000          3.6277          3.6277          3.6277          0.0000          0.0000          0.0000
   0.3200          3.6477          3.6477          3.6477          0.0000          0.0000          0.0000
   0.3400          3.6672          3.6672          3.6672          0.0000          0.0000          0.0000
   0.3600          3.6862          3.6862          3.6862          0.0000          0.0000          0.0000
   0.3800          3.7047          3.7047          3.7047          0.0000          0.0000          0.0000
   0.4000          3.7226          3.7226          3.7226          0.0000          0.0000          0.0000
   0.4200          3.7400          3.7400          3.7400          0.0000          0.0000          0.0000
   0.4400          3.7567          3.7567          3.7567          0.0000          0.0000          0.0000
   0.4600          3.7729          3.7729          3.7729          0.0000          0.0000          0.0000
   0.4800          3.7883          3.7883          3.7883          0.0000          0.0000          0.0000
   0.5000          3.8031          3.8031          3.8031          0.0000          0.0000          0.0000
   0.5200          3.8172          3.8172          3.8172          0.0000          0.0000          0.0000
   0.5400          3.8306          3.8306          3.8306          0.0000          0.0000          0.0000
   0.5600          3.8433          3.8433          3.8433          0.0000          0.0000          0.0000
   0.5800          3.8552          3.8552          3.8552          0.0000          0.0000          0.0000
   0.6000          3.8664          3.8664          3.8664          0.0000          0.0000          0.0000
   0.6200          3.8768          3.8768          3.8768          0.0000          0.0000          0.0000
   0.6400          3.8863          3.8863          3.8863          0.0000          0.0000          0.0000
   0.6600          3.8951          3.8951          3.8951          0.0000          0.0000          0.0000
   0.6800          3.9030          3.9030          3.9030          0.0000          0.0000          0.0000
   0.7000          3.9101          3.9101          3.9101          0.0000          0.0000          0.0000
   0.7200          3.9163          3.9163          3.9163          0.0000          0.0000          0.0000
   0.7400          3.9216          3.9216          3.9216          0.0000          0.0000          0.0000
   0.7600          3.9260          3.9260          3.9260          0.0000          0.0000          0.0000
   0.7800          3.9295          3.9295          3.9295          0.0000          0.0000          0.0000
   0.8000          3.9320          3.9320          3.9320          0.0000          0.0000          0.0000
   0.8200          3.9336          3.9336          3.9336          0.0000          0.0000          0.0000
   0.8400          3.9343          3.9343          3.9343          0.0000          0.0000          0.0000
   0.8600          3.9339          3.9339          3.9339          0.0000          0.0000          0.0000
   0.8800          3.9326          3.9326          3.9326          0.0000          0.0000          0.0000
   0.9000          3.9302          3.9302          3.9302          0.0000          0.0000          0.0000
   0.9200          3.9269          3.9269          3.9269          0.0000          0.0000          0.0000
   0.9400          3.9224          3.9224          3.9224          0.0000          0.0000          0.0000
   0.9600          3.9169          3.9169          3.9169          0.0000          0.0000          0.0000
   0.9800          3.9103          3.9103          3.9103          0.0000          0.0000          0.0000
   1.0000          3.9026          3.9026          3.9026          0.0000          0.0000          0.0000
   1.0200          3.8937          3.8937          3.8937          0.0000          0.0000          0.0000
   1.0400          3.8836          3.8836          3.8836          0.0000          0.0000          0.0000
   1.0600          3.8724          3.8724          3.8724          0.0000          0.0000          0.0000
   1.0800          3.8599          3.8599          3.8599          0.0000          0.0000          0.0000
   1.1000          3.8461          3.8461          3.8461          0.0000          0.0000          0.0000
   1.1200          3.8310          3.8310          3.8310          0.0000          0.0000          0.0000
   1.1400          3.8145          3.8145          3.8145          0.0000          0.0000          0.0000
   1.1600          3.7965          3.7965          3.7965          0.0000          0.0000          0.0000
   1.1800          3.7771          3.7771          3.7771          0.0000          0.0000          0.0000
   1.2000          3.7562          3.7562          3.7562          0.0000          0.0000          0.0000
   1.2200          3.7337          3.7337          3.7337          0.0000          0.0000          0.0000
   1.2400          3.7097          3.7097          3.7097          0.0000          0.0000          0.0000
   1.2600          3.6840          3.6840          3.6840          0.0000          0.0000          0.0000
   1.2800          3.6569          3.6569          3.6569          0.0000          0.0000          0.0000
   1.3000          3.6284          3.6284          3.6284          0.0000          0.0000          0.0000
   1.3200          3.5988          3.5988          3.5988          0.0000          0.0000          0.0000
   1.3400          3.5686          3.5686          3.5686          0.0000          0.0000          0.0000
   1.3600          3.5382          3.5382          3.5382          0.0000          0.0000          0.0000
   1.3800          3.5084          3.5084          3.5084          0.0000          0.0000          0.0000
   1.4000          3.4799          3.4799          3.4799          0.0000          0.0000          0.0000
   1.4200          3.4535          3.4535          3.4535          0.0000          0.0000          0.0000
   1.4400          3.4296          3.4296          3.4296          0.0000          0.0000          0.0000
   1.4600          3.4086          3.4086          3.4086          0.0000          0.0000          0.0000
   1.4800          3.3902          3.3902          3.3902          0.0000          0.0000          0.0000
   1.5000          3.3737          3.3737          3.3737          0.0000          0.0000          0.0000
   1.5200          3.3580          3.3580          3.3580          0.0000          0.0000          0.0000
   1.5400          3.3415          3.3415          3.3415          0.0000          0.0000          0.0000
   1.5600          3.3226          3.3226          3.3226          0.0000          0.0000          0.0000
   1.5800          3.2998          3.2998          3.2998          0.0000          0.0000          0.0000
   1.6000          3.2721          3.2721          3.2721          0.0000          0.0000          0.0000
   1.6200          3.2387          3.2387          3.2387          0.0000          0.0000          0.0000
   1.6400          3.1998          3.1998          3.1998          0.0000          0.0000          0.0000
   1.6600          3.1560          3.1560          3.1560          0.0000          0.0000          0.0000
   1.6800          3.1083          3.1083          3.1083          0.0000          0.0000          0.0000
   1.7000          3.0581          3.0581          3.0581          0.0000          0.0000          0.0000
   1.7200          3.0067          3.0067          3.0067          0.0000          0.0000          0.0000
   1.7400          2.9553          2.9553          2.9553          0.0000          0.0000          0.0000
   1.7600          2.9049          2.9049          2.9049          0.0000          0.0000          0.0000
   1.7800          2.8560          2.8560          2.8560          0.0000          0.0000          0.0000
   1.8000          2.8089          2.8089          2.8089          0.0000          0.0000          0.0000
   1.8200          2.7637          2.7637          2.7637          0.0000          0.0000          0.0000
   1.8400          2.7206          2.7206          2.7206          0.0000          0.0000          0.0000
   1.8600          2.6797          2.6797          2.6797          0.0000          0.0000          0.0000
   1.8800          2.6410          2.6410          2.6410          0.0000          0.0000          0.0000
   1.9000          2.6049          2.6049          2.6049          0.0000          0.0000          0.0000
   1.9200          2.5714          2.5714          2.5714          0.0000          0.0000          0.0000
   1.9400          2.5407          2.5407          2.5407          0.0000          0.0000          0.0000
   1.9600          2.5125          2.5125          2.5125          0.0000          0.0000          0.0000
   1.9800          2.4868          2.4868          2.4868          0.0000          0.0000          0.0000
   2.0000          2.4631          2.4631          2.4631          0.0000          0.0000          0.0000
   2.0200          2.4412          2.4412          2.4412          0.0000          0.0000          0.0000
   2.0400          2.4208          2.4208          2.4208          0.0000          0.0000          0.0000
   2.0600          2.4017          2.4017          2.4017          0.0000          0.0000          0.0000
   2.0800          2.3842          2.3842          2.3842          0.0000          0.0000          0.0000
   2.1000          2.3687          2.3687          2.3687          0.0000          0.0000          0.0000
   2.1200          2.3562          2.3562          2.3562          0.0000          0.0000          0.0000
   2.1400          2.3484          2.3484          2.3484          0.0000          0.0000          0.0000
   2.1600          2.3473          2.3473          2.3473          0.0000          0.0000          0.0000
   2.1800          2.3551          2.3551          2.3551          0.0000          0.0000          0.0000
   2.2000          2.3738          2.3738          2.3738          0.0000          0.0000          0.0000
   2.2200          2.4045          2.4045          2.4045          0.0000          0.0000          0.0000
   2.2400          2.4472          2.4472          2.4472          0.0000          0.0000          0.0000
   2.2600          2.5004          2.5004          2.5004          0.0000          0.0000          0.0000
   2.2800          2.5614          2.5614          2.5614          0.0000          0.0000          0.0000
   2.3000          2.6266          2.6266          2.6266          0.0000          0.0000          0.0000
   2.3200          2.6920          2.6920          2.6920          0.0000          0.0000          0.0000
   2.3400          2.7537          2.7537          2.7537          0.0000          0.0000          0.0000
   2.3600          2.8085          2.8085          2.8085          0.0000          0.0000          0.0000
   2.3800          2.8538          2.8538          2.8538          0.0000          0.0000          0.0000
   2.4000          2.8878          2.8878          2.8878          0.0000          0.0000          0.0000
   2.4200          2.9091          2.9091          2.9091          0.0000          0.0000          0.0000
   2.4400          2.9175          2.9175          2.9175          0.0000          0.0000          0.0000
   2.4600          2.9132          2.9132          2.9132          0.0000          0.0000          0.0000
   2.4800          2.8974          2.8974          2.8974          0.0000          0.0000          0.0000
   2.5000          2.8720          2.8720          2.8720          0.0000          0.0000          0.0000
   2.5200          2.8399          2.8399          2.8399          0.0000          0.0000          0.0000
   2.5400          2.8040          2.8040          2.8040          0.0000          0.0000          0.0000
   2.5600          2.7679          2.7679          2.7679          0.0000          0.0000          0.0000
   2.5800          2.7346          2.7346          2.7346          0.0000          0.0000          0.0000
   2.6000          2.7070          2.7070          2.7070          0.0000          0.0000          0.0000
   2.6200          2.6874          2.6874          2.6874          0.0000          0.0000          0.0000
   2.6400          2.6774          2.6774          2.6774          0.0000          0.0000          0.0000
   2.6600          2.6784          2.6784          2.6784          0.0000          0.0000          0.0000
   2.6800          2.6911          2.6911          2.6911          0.0000          0.0000          0.0000
   2.7000          2.7156          2.7156          2.7156          0.0000          0.0000          0.0000
   2.7200          2.7514          2.7514          2.7514          0.0000          0.0000          0.0000
   2.7400          2.7973          2.7973          2.7973          0.0000          0.0000          0.0000
   2.7600          2.8512          2.8512          2.8512          0.0000          0.0000          0.0000
   2.7800          2.9103          2.9103          2.9103          0.0000          0.0000          0.0000
   2.8000          2.9713          2.9713          2.9713          0.0000          0.0000          0.0000
   2.8200          3.0303          3.0303          3.0303          0.0000          0.0000          0.0000
   2.8400          3.0836          3.0836          3.0836          0.0000          0.0000          0.0000
   2.8600          3.1281          3.1281          3.1281          0.0000          0.0000          0.0000
   2.8800          3.1613          3.1613          3.1613          0.0000          0.0000          0.0000
   2.9000          3.1817          3.1817          3.1817          0.0000          0.0000          0.0000
   2.9200          3.1893          3.1893          3.1893          0.0000          0.0000          0.0000
   2.9400          3.1852          3.1852          3.1852          0.0000          0.0000          0.0000
   2.9600          3.1716          3.1716          3.1716          0.0000          0.0000          0.0000
   2.9800          3.1514          3.1514          3.1514          0.0000          0.0000          0.0000
   3.0000          3.1280          3.1280          3.1280          0.0000          0.0000          0.0000
   3.0200          3.1047          3.1047          3.1047          0.0000          0.0000          0.0000
   3.0400          3.0844          3.0844          3.0844          0.0000          0.0000          0.0000
   3.0600          3.0692          3.0692          3.0692          0.0000          0.0000          0.0000
   3.0800          3.0602          3.0602          3.0602          0.0000          0.0000          0.0000
   3.1000          3.0574          3.0574          3.0574          0.0000          0.0000          0.0000
   3.1200          3.0603          3.0603          3.0603          0.0000          0.0000          0.0000
   3.1400          3.0675          3.0675          3.0675          0.0000          0.0000          0.0000
   3.1600          3.0773          3.0773          3.0773          0.0000          0.0000          0.0000
   3.1800          3.0880          3.0880          3.0880          0.0000          0.0000          0.0000
   3.2000          3.0980          3.0980          3.0980          0.0000          0.0000          0.0000
   3.2200          3.1058          3.1058          3.1058          0.0000          0.0000          0.0000
   3.2400          3.1107          3.1107          3.1107          0.0000          0.0000          0.0000
   3.2600          3.1125          3.1125          3.1125          0.0000          0.0000          0.0000
   3.2800          3.1119          3.1119          3.1119          0.0000          0.0000          0.0000
   3.3000          3.1106          3.1106          3.1106          0.0000          0.0000          0.0000
   3.3200          3.1109          3.1109          3.1109          0.0000          0.0000          0.0000
   3.3400          3.1156          3.1156          3.1156          0.0000          0.0000          0.0000
   3.3600          3.1267          3.1267          3.1267          0.0000          0.0000          0.0000
   3.3800          3.1456          3.1456          3.1456          0.0000          0.0000          0.0000
   3.4000          3.1721          3.1721          3.1721          0.0000          0.0000          0.0000
   3.4200          3.2046          3.2046          3.2046          0.0000          0.0000          0.0000
   3.4400          3.2403          3.2403          3.2403          0.0000          0.0000          0.0000
   3.4600          3.2763          3.2763          3.2763          0.0000          0.0000          0.0000
   3.4800          3.3098          3.3098          3.3098          0.0000          0.0000          0.0000
   3.5000          3.3393          3.3393          3.3393          0.0000          0.0000          0.0000
   3.5200          3.3647          3.3647          3.3647          0.0000          0.0000          0.0000
   3.5400          3.3873          3.3873          3.3873          0.0000          0.0000          0.0000
   3.5600          3.4095          3.4095          3.4095          0.0000          0.0000          0.0000
   3.5800          3.4339          3.4339          3.4339          0.0000          0.0000          0.0000
   3.6000          3.4626          3.4626          3.4626          0.0000          0.0000          0.0000
   3.6200          3.4966          3.4966          3.4966          0.0000          0.0000          0.0000
   3.6400          3.5356          3.5356          3.5356          0.0000          0.0000          0.0000
   3.6600          3.5780          3.5780          3.5780          0.0000          0.0000          0.0000
   3.6800          3.6208          3.6208          3.6208          0.0000          0.0000          0.0000
   3.7000          3.6607          3.6607          3.6607          0.0000          0.0000          0.0000
   3.7200          3.6943          3.6943          3.6943          0.0000          0.0000          0.0000
   3.7400          3.7192          3.7192          3.7192          0.0000          0.0000          0.0000
