### linear absorption coefficients(in units of 10^5 cm-1)
   0.0000          0.0000          0.0000          0.0000          0.0000          0.0000          0.0000
   0.0200          0.6448          0.6448          0.6448          0.0000          0.0000          0.0000
   0.0400          0.9146          0.9146          0.9146          0.0000          0.0000          0.0000
   0.0600          1.1234          1.1234          1.1234          0.0000          0.0000          0.0000
   0.0800          1.3008          1.3008          1.3008          0.0000          0.0000          0.0000
   0.1000          1.4581          1.4581          1.4581          0.0000          0.0000          0.0000
   0.1200          1.6014          1.6014          1.6014          0.0000          0.0000          0.0000
   0.1400          1.7339          1.7339          1.7339          0.0000          0.0000          0.0000
   0.1600          1.8579          1.8579          1.8579          0.0000          0.0000          0.0000
   0.1800          1.9750          1.9750          1.9750          0.0000          0.0000          0.0000
   0.2000          2.0862          2.0862          2.0862          0.0000          0.0000          0.0000
   0.2200          2.1923          2.1923          2.1923          0.0000          0.0000          0.0000
   0.2400          2.2941          2.2941          2.2941          0.0000          0.0000          0.0000
   0.2600          2.3920          2.3920          2.3920          0.0000          0.0000          0.0000
   0.2800          2.4864          2.4864          2.4864          0.0000          0.0000          0.0000
   0.3000          2.5776          2.5776          2.5776          0.0000          0.0000          0.0000
   0.3200          2.6659          2.6659          2.6659          0.0000          0.0000          0.0000
   0.3400          2.7515          2.7515          2.7515          0.0000          0.0000          0.0000
   0.3600          2.8346          2.8346          2.8346          0.0000          0.0000          0.0000
   0.3800          2.9154          2.9154          2.9154          0.0000          0.0000          0.0000
   0.4000          2.9939          2.9939          2.9939          0.0000          0.0000          0.0000
   0.4200          3.0704          3.0704          3.0704          0.0000          0.0000          0.0000
   0.4400          3.1448          3.1448          3.1448          0.0000          0.0000          0.0000
   0.4600          3.2174          3.2174          3.2174          0.0000          0.0000          0.0000
   0.4800          3.2881          3.2881          3.2881          0.0000          0.0000          0.0000
   0.5000          3.3570          3.3570          3.3570          0.0000          0.0000          0.0000
   0.5200          3.4242          3.4242          3.4242          0.0000          0.0000          0.0000
   0.5400          3.4898          3.4898          3.4898          0.0000          0.0000          0.0000
   0.5600          3.5537          3.5537          3.5537          0.0000          0.0000          0.0000
   0.5800          3.6160          3.6160          3.6160          0.0000          0.0000          0.0000
   0.6000          3.6768          3.6768          3.6768          0.0000          0.0000          0.0000
   0.6200          3.7361          3.7361          3.7361          0.0000          0.0000          0.0000
   0.6400          3.7938          3.7938          3.7938          0.0000          0.0000          0.0000
   0.6600          3.8501          3.8501          3.8501          0.0000          0.0000          0.0000
   0.6800          3.9050          3.9050          3.9050          0.0000          0.0000          0.0000
   0.7000          3.9584          3.9584          3.9584          0.0000          0.0000          0.0000
   0.7200          4.0103          4.0103          4.0103          0.0000          0.0000          0.0000
   0.7400          4.0609          4.0609          4.0609          0.0000          0.0000          0.0000
   0.7600          4.1101          4.1101          4.1101          0.0000          0.0000          0.0000
   0.7800          4.1579          4.1579          4.1579          0.0000          0.0000          0.0000
   0.8000          4.2043          4.2043          4.2043          0.0000          0.0000          0.0000
   0.8200          4.2494          4.2494          4.2494          0.0000          0.0000          0.0000
   0.8400          4.2931          4.2931          4.2931          0.0000          0.0000          0.0000
   0.8600          4.3354          4.3354          4.3354          0.0000          0.0000          0.0000
   0.8800          4.3764          4.3764          4.3764          0.0000          0.0000          0.0000
   0.9000          4.4161          4.4161          4.4161          0.0000          0.0000          0.0000
   0.9200          4.4544          4.4544          4.4544          0.0000          0.0000          0.0000
   0.9400          4.4913          4.4913          4.4913          0.0000          0.0000          0.0000
   0.9600          4.5270          4.5270          4.5270          0.0000          0.0000          0.0000
   0.9800          4.5612          4.5612          4.5612          0.0000          0.0000          0.0000
   1.0000          4.5941          4.5941          4.5941          0.0000          0.0000          0.0000
   1.0200          4.6257          4.6257          4.6257          0.0000          0.0000          0.0000
   1.0400          4.6559          4.6559          4.6559          0.0000          0.0000          0.0000
   1.0600          4.6848          4.6848          4.6848          0.0000          0.0000          0.0000
   1.0800          4.7123          4.7123          4.7123          0.0000          0.0000          0.0000
   1.1000          4.7385          4.7385          4.7385          0.0000          0.0000          0.0000
   1.1200          4.7632          4.7632          4.7632          0.0000          0.0000          0.0000
   1.1400          4.7866          4.7866          4.7866          0.0000          0.0000          0.0000
   1.1600          4.8086          4.8086          4.8086          0.0000          0.0000          0.0000
   1.1800          4.8292          4.8292          4.8292          0.0000          0.0000          0.0000
   1.2000          4.8484          4.8484          4.8484          0.0000          0.0000          0.0000
   1.2200          4.8662          4.8662          4.8662          0.0000          0.0000          0.0000
   1.2400          4.8826          4.8826          4.8826          0.0000          0.0000          0.0000
   1.2600          4.8975          4.8975          4.8975          0.0000          0.0000          0.0000
   1.2800          4.9109          4.9109          4.9109          0.0000          0.0000          0.0000
   1.3000          4.9229          4.9229          4.9229          0.0000          0.0000          0.0000
   1.3200          4.9334          4.9334          4.9334          0.0000          0.0000          0.0000
   1.3400          4.9423          4.9423          4.9423          0.0000          0.0000          0.0000
   1.3600          4.9498          4.9498          4.9498          0.0000          0.0000          0.0000
   1.3800          4.9557          4.9557          4.9557          0.0000          0.0000          0.0000
   1.4000          4.9600          4.9600          4.9600          0.0000          0.0000          0.0000
   1.4200          4.9628          4.9628          4.9628          0.0000          0.0000          0.0000
   1.4400          4.9639          4.9639          4.9639          0.0000          0.0000          0.0000
   1.4600          4.9634          4.9634          4.9634          0.0000          0.0000          0.0000
   1.4800          4.9614          4.9614          4.9614          0.0000          0.0000          0.0000
   1.5000          4.9576          4.9576          4.9576          0.0000          0.0000          0.0000
   1.5200          4.9522          4.9522          4.9522          0.0000          0.0000          0.0000
   1.5400          4.9452          4.9452          4.9452          0.0000          0.0000          0.0000
   1.5600          4.9366          4.9366          4.9366          0.0000          0.0000          0.0000
   1.5800          4.9265          4.9265          4.9265          0.0000          0.0000          0.0000
   1.6000          4.9148          4.9148          4.9148          0.0000          0.0000          0.0000
   1.6200          4.9018          4.9018          4.9018          0.0000          0.0000          0.0000
   1.6400          4.8875          4.8875          4.8875          0.0000          0.0000          0.0000
   1.6600          4.8721          4.8721          4.8721          0.0000          0.0000          0.0000
   1.6800          4.8560          4.8560          4.8560          0.0000          0.0000          0.0000
   1.7000          4.8393          4.8393          4.8393          0.0000          0.0000          0.0000
   1.7200          4.8227          4.8227          4.8227          0.0000          0.0000          0.0000
   1.7400          4.8068          4.8068          4.8068          0.0000          0.0000          0.0000
   1.7600          4.7923          4.7923          4.7923          0.0000          0.0000          0.0000
   1.7800          4.7802          4.7802          4.7802          0.0000          0.0000          0.0000
   1.8000          4.7717          4.7717          4.7717          0.0000          0.0000          0.0000
   1.8200          4.7679          4.7679          4.7679          0.0000          0.0000          0.0000
   1.8400          4.7700          4.7700          4.7700          0.0000          0.0000          0.0000
   1.8600          4.7789          4.7789          4.7789          0.0000          0.0000          0.0000
   1.8800          4.7949          4.7949          4.7949          0.0000          0.0000          0.0000
   1.9000          4.8179          4.8179          4.8179          0.0000          0.0000          0.0000
   1.9200          4.8470          4.8470          4.8470          0.0000          0.0000          0.0000
   1.9400          4.8810          4.8810          4.8810          0.0000          0.0000          0.0000
   1.9600          4.9181          4.9181          4.9181          0.0000          0.0000          0.0000
   1.9800          4.9567          4.9567          4.9567          0.0000          0.0000          0.0000
   2.0000          4.9954          4.9954          4.9954          0.0000          0.0000          0.0000
   2.0200          5.0337          5.0337          5.0337          0.0000          0.0000          0.0000
   2.0400          5.0716          5.0716          5.0716          0.0000          0.0000          0.0000
   2.0600          5.1102          5.1102          5.1102          0.0000          0.0000          0.0000
   2.0800          5.1508          5.1508          5.1508          0.0000          0.0000          0.0000
   2.1000          5.1953          5.1953          5.1953          0.0000          0.0000          0.0000
   2.1200          5.2451          5.2451          5.2451          0.0000          0.0000          0.0000
   2.1400          5.3013          5.3013          5.3013          0.0000          0.0000          0.0000
   2.1600          5.3646          5.3646          5.3646          0.0000          0.0000          0.0000
   2.1800          5.4350          5.4350          5.4350          0.0000          0.0000          0.0000
   2.2000          5.5120          5.5120          5.5120          0.0000          0.0000          0.0000
   2.2200          5.5948          5.5948          5.5948          0.0000          0.0000          0.0000
   2.2400          5.6822          5.6822          5.6822          0.0000          0.0000          0.0000
   2.2600          5.7729          5.7729          5.7729          0.0000          0.0000          0.0000
   2.2800          5.8656          5.8656          5.8656          0.0000          0.0000          0.0000
   2.3000          5.9586          5.9586          5.9586          0.0000          0.0000          0.0000
   2.3200          6.0504          6.0504          6.0504          0.0000          0.0000          0.0000
   2.3400          6.1392          6.1392          6.1392          0.0000          0.0000          0.0000
   2.3600          6.2231          6.2231          6.2231          0.0000          0.0000          0.0000
   2.3800          6.3005          6.3005          6.3005          0.0000          0.0000          0.0000
   2.4000          6.3698          6.3698          6.3698          0.0000          0.0000          0.0000
   2.4200          6.4296          6.4296          6.4296          0.0000          0.0000          0.0000
   2.4400          6.4792          6.4792          6.4792          0.0000          0.0000          0.0000
   2.4600          6.5186          6.5186          6.5186          0.0000          0.0000          0.0000
   2.4800          6.5481          6.5481          6.5481          0.0000          0.0000          0.0000
   2.5000          6.5689          6.5689          6.5689          0.0000          0.0000          0.0000
   2.5200          6.5824          6.5824          6.5824          0.0000          0.0000          0.0000
   2.5400          6.5905          6.5905          6.5905          0.0000          0.0000          0.0000
   2.5600          6.5952          6.5952          6.5952          0.0000          0.0000          0.0000
   2.5800          6.5986          6.5986          6.5986          0.0000          0.0000          0.0000
   2.6000          6.6030          6.6030          6.6030          0.0000          0.0000          0.0000
   2.6200          6.6106          6.6106          6.6106          0.0000          0.0000          0.0000
   2.6400          6.6232          6.6232          6.6232          0.0000          0.0000          0.0000
   2.6600          6.6424          6.6424          6.6424          0.0000          0.0000          0.0000
   2.6800          6.6694          6.6694          6.6694          0.0000          0.0000          0.0000
   2.7000          6.7047          6.7047          6.7047          0.0000          0.0000          0.0000
   2.7200          6.7481          6.7481          6.7481          0.0000          0.0000          0.0000
   2.7400          6.7992          6.7992          6.7992          0.0000          0.0000          0.0000
   2.7600          6.8567          6.8567          6.8567          0.0000          0.0000          0.0000
   2.7800          6.9189          6.9189          6.9189          0.0000          0.0000          0.0000
   2.8000          6.9838          6.9838          6.9838          0.0000          0.0000          0.0000
   2.8200          7.0492          7.0492          7.0492          0.0000          0.0000          0.0000
   2.8400          7.1125          7.1125          7.1125          0.0000          0.0000          0.0000
   2.8600          7.1711          7.1711          7.1711          0.0000          0.0000          0.0000
   2.8800          7.2225          7.2225          7.2225          0.0000          0.0000          0.0000
   2.9000          7.2642          7.2642          7.2642          0.0000          0.0000          0.0000
   2.9200          7.2947          7.2947          7.2947          0.0000          0.0000          0.0000
   2.9400          7.3131          7.3131          7.3131          0.0000          0.0000          0.0000
   2.9600          7.3199          7.3199          7.3199          0.0000          0.0000          0.0000
   2.9800          7.3167          7.3167          7.3167          0.0000          0.0000          0.0000
   3.0000          7.3061          7.3061          7.3061          0.0000          0.0000          0.0000
   3.0200          7.2915          7.2915          7.2915          0.0000          0.0000          0.0000
   3.0400          7.2763          7.2763          7.2763          0.0000          0.0000          0.0000
   3.0600          7.2638          7.2638          7.2638          0.0000          0.0000          0.0000
   3.0800          7.2568          7.2568          7.2568          0.0000          0.0000          0.0000
   3.1000          7.2573          7.2573          7.2573          0.0000          0.0000          0.0000
   3.1200          7.2664          7.2664          7.2664          0.0000          0.0000          0.0000
   3.1400          7.2850          7.2850          7.2850          0.0000          0.0000          0.0000
   3.1600          7.3138          7.3138          7.3138          0.0000          0.0000          0.0000
   3.1800          7.3538          7.3538          7.3538          0.0000          0.0000          0.0000
   3.2000          7.4059          7.4059          7.4059          0.0000          0.0000          0.0000
   3.2200          7.4712          7.4712          7.4712          0.0000          0.0000          0.0000
   3.2400          7.5501          7.5501          7.5501          0.0000          0.0000          0.0000
   3.2600          7.6417          7.6417          7.6417          0.0000          0.0000          0.0000
   3.2800          7.7432          7.7432          7.7432          0.0000          0.0000          0.0000
   3.3000          7.8498          7.8498          7.8498          0.0000          0.0000          0.0000
   3.3200          7.9558          7.9558          7.9558          0.0000          0.0000          0.0000
   3.3400          8.0546          8.0546          8.0546          0.0000          0.0000          0.0000
   3.3600          8.1411          8.1411          8.1411          0.0000          0.0000          0.0000
   3.3800          8.2120          8.2120          8.2120          0.0000          0.0000          0.0000
   3.4000          8.2669          8.2669          8.2669          0.0000          0.0000          0.0000
   3.4200          8.3083          8.3083          8.3083          0.0000          0.0000          0.0000
   3.4400          8.3408          8.3408          8.3408          0.0000          0.0000          0.0000
   3.4600          8.3697          8.3697          8.3697          0.0000          0.0000          0.0000
   3.4800          8.3998          8.3998          8.3998          0.0000          0.0000          0.0000
   3.5000          8.4337          8.4337          8.4337          0.0000          0.0000          0.0000
   3.5200          8.4717          8.4717          8.4717          0.0000          0.0000          0.0000
   3.5400          8.5113          8.5113          8.5113          0.0000          0.0000          0.0000
   3.5600          8.5486          8.5486          8.5486          0.0000          0.0000          0.0000
   3.5800          8.5789          8.5789          8.5789          0.0000          0.0000          0.0000
   3.6000          8.5980          8.5980          8.5980          0.0000          0.0000          0.0000
   3.6200          8.6033          8.6033          8.6033          0.0000          0.0000          0.0000
   3.6400          8.5939          8.5939          8.5939          0.0000          0.0000          0.0000
   3.6600          8.5710          8.5710          8.5710          0.0000          0.0000          0.0000
   3.6800          8.5377          8.5377          8.5377          0.0000          0.0000          0.0000
   3.7000          8.4986          8.4986          8.4986          0.0000          0.0000          0.0000
   3.7200          8.4589          8.4589          8.4589          0.0000          0.0000          0.0000
   3.7400          8.4238          8.4238          8.4238          0.0000          0.0000          0.0000
