### electron energy loss spectra
   0.0000          0.0002          0.0002          0.0002
   0.0200          0.0005          0.0005          0.0005
   0.0400          0.0010          0.0010          0.0010
   0.0600          0.0015          0.0015          0.0015
   0.0800          0.0020          0.0020          0.0020
   0.1000          0.0025          0.0025          0.0025
   0.1200          0.0030          0.0030          0.0030
   0.1400          0.0035          0.0035          0.0035
   0.1600          0.0040          0.0040          0.0040
   0.1800          0.0045          0.0045          0.0045
   0.2000          0.0050          0.0050          0.0050
   0.2200          0.0055          0.0055          0.0055
   0.2400          0.0060          0.0060          0.0060
   0.2600          0.0065          0.0065          0.0065
   0.2800          0.0070          0.0070          0.0070
   0.3000          0.0076          0.0076          0.0076
   0.3200          0.0081          0.0081          0.0081
   0.3400          0.0086          0.0086          0.0086
   0.3600          0.0091          0.0091          0.0091
   0.3800          0.0097          0.0097          0.0097
   0.4000          0.0102          0.0102          0.0102
   0.4200          0.0107          0.0107          0.0107
   0.4400          0.0113          0.0113          0.0113
   0.4600          0.0118          0.0118          0.0118
   0.4800          0.0124          0.0124          0.0124
   0.5000          0.0129          0.0129          0.0129
   0.5200          0.0135          0.0135          0.0135
   0.5400          0.0140          0.0140          0.0140
   0.5600          0.0146          0.0146          0.0146
   0.5800          0.0152          0.0152          0.0152
   0.6000          0.0158          0.0158          0.0158
   0.6200          0.0164          0.0164          0.0164
   0.6400          0.0170          0.0170          0.0170
   0.6600          0.0176          0.0176          0.0176
   0.6800          0.0182          0.0182          0.0182
   0.7000          0.0188          0.0188          0.0188
   0.7200          0.0194          0.0194          0.0194
   0.7400          0.0200          0.0200          0.0200
   0.7600          0.0207          0.0207          0.0207
   0.7800          0.0213          0.0213          0.0213
   0.8000          0.0220          0.0220          0.0220
   0.8200          0.0227          0.0227          0.0227
   0.8400          0.0233          0.0233          0.0233
   0.8600          0.0240          0.0240          0.0240
   0.8800          0.0247          0.0247          0.0247
   0.9000          0.0255          0.0255          0.0255
   0.9200          0.0262          0.0262          0.0262
   0.9400          0.0269          0.0269          0.0269
   0.9600          0.0277          0.0277          0.0277
   0.9800          0.0284          0.0284          0.0284
   1.0000          0.0292          0.0292          0.0292
   1.0200          0.0300          0.0300          0.0300
   1.0400          0.0308          0.0308          0.0308
   1.0600          0.0316          0.0316          0.0316
   1.0800          0.0325          0.0325          0.0325
   1.1000          0.0333          0.0333          0.0333
   1.1200          0.0342          0.0342          0.0342
   1.1400          0.0351          0.0351          0.0351
   1.1600          0.0360          0.0360          0.0360
   1.1800          0.0369          0.0369          0.0369
   1.2000          0.0379          0.0379          0.0379
   1.2200          0.0389          0.0389          0.0389
   1.2400          0.0398          0.0398          0.0398
   1.2600          0.0409          0.0409          0.0409
   1.2800          0.0419          0.0419          0.0419
   1.3000          0.0429          0.0429          0.0429
   1.3200          0.0440          0.0440          0.0440
   1.3400          0.0451          0.0451          0.0451
   1.3600          0.0463          0.0463          0.0463
   1.3800          0.0474          0.0474          0.0474
   1.4000          0.0486          0.0486          0.0486
   1.4200          0.0498          0.0498          0.0498
   1.4400          0.0510          0.0510          0.0510
   1.4600          0.0523          0.0523          0.0523
   1.4800          0.0535          0.0535          0.0535
   1.5000          0.0548          0.0548          0.0548
   1.5200          0.0561          0.0561          0.0561
   1.5400          0.0575          0.0575          0.0575
   1.5600          0.0588          0.0588          0.0588
   1.5800          0.0602          0.0602          0.0602
   1.6000          0.0615          0.0615          0.0615
   1.6200          0.0629          0.0629          0.0629
   1.6400          0.0642          0.0642          0.0642
   1.6600          0.0655          0.0655          0.0655
   1.6800          0.0667          0.0667          0.0667
   1.7000          0.0679          0.0679          0.0679
   1.7200          0.0690          0.0690          0.0690
   1.7400          0.0701          0.0701          0.0701
   1.7600          0.0709          0.0709          0.0709
   1.7800          0.0717          0.0717          0.0717
   1.8000          0.0722          0.0722          0.0722
   1.8200          0.0726          0.0726          0.0726
   1.8400          0.0728          0.0728          0.0728
   1.8600          0.0728          0.0728          0.0728
   1.8800          0.0727          0.0727          0.0727
   1.9000          0.0725          0.0725          0.0725
   1.9200          0.0722          0.0722          0.0722
   1.9400          0.0720          0.0720          0.0720
   1.9600          0.0718          0.0718          0.0718
   1.9800          0.0716          0.0716          0.0716
   2.0000          0.0714          0.0714          0.0714
   2.0200          0.0713          0.0713          0.0713
   2.0400          0.0712          0.0712          0.0712
   2.0600          0.0710          0.0710          0.0710
   2.0800          0.0708          0.0708          0.0708
   2.1000          0.0706          0.0706          0.0706
   2.1200          0.0702          0.0702          0.0702
   2.1400          0.0698          0.0698          0.0698
   2.1600          0.0694          0.0694          0.0694
   2.1800          0.0690          0.0690          0.0690
   2.2000          0.0686          0.0686          0.0686
   2.2200          0.0682          0.0682          0.0682
   2.2400          0.0679          0.0679          0.0679
   2.2600          0.0677          0.0677          0.0677
   2.2800          0.0676          0.0676          0.0676
   2.3000          0.0675          0.0675          0.0675
   2.3200          0.0676          0.0676          0.0676
   2.3400          0.0679          0.0679          0.0679
   2.3600          0.0682          0.0682          0.0682
   2.3800          0.0687          0.0687          0.0687
   2.4000          0.0693          0.0693          0.0693
   2.4200          0.0701          0.0701          0.0701
   2.4400          0.0709          0.0709          0.0709
   2.4600          0.0719          0.0719          0.0719
   2.4800          0.0729          0.0729          0.0729
   2.5000          0.0740          0.0740          0.0740
   2.5200          0.0751          0.0751          0.0751
   2.5400          0.0762          0.0762          0.0762
   2.5600          0.0772          0.0772          0.0772
   2.5800          0.0782          0.0782          0.0782
   2.6000          0.0790          0.0790          0.0790
   2.6200          0.0797          0.0797          0.0797
   2.6400          0.0803          0.0803          0.0803
   2.6600          0.0807          0.0807          0.0807
   2.6800          0.0809          0.0809          0.0809
   2.7000          0.0811          0.0811          0.0811
   2.7200          0.0812          0.0812          0.0812
   2.7400          0.0813          0.0813          0.0813
   2.7600          0.0813          0.0813          0.0813
   2.7800          0.0814          0.0814          0.0814
   2.8000          0.0815          0.0815          0.0815
   2.8200          0.0818          0.0818          0.0818
   2.8400          0.0821          0.0821          0.0821
   2.8600          0.0827          0.0827          0.0827
   2.8800          0.0833          0.0833          0.0833
   2.9000          0.0842          0.0842          0.0842
   2.9200          0.0852          0.0852          0.0852
   2.9400          0.0864          0.0864          0.0864
   2.9600          0.0876          0.0876          0.0876
   2.9800          0.0889          0.0889          0.0889
   3.0000          0.0903          0.0903          0.0903
   3.0200          0.0915          0.0915          0.0915
   3.0400          0.0926          0.0926          0.0926
   3.0600          0.0935          0.0935          0.0935
   3.0800          0.0942          0.0942          0.0942
   3.1000          0.0947          0.0947          0.0947
   3.1200          0.0949          0.0949          0.0949
   3.1400          0.0950          0.0950          0.0950
   3.1600          0.0949          0.0949          0.0949
   3.1800          0.0946          0.0946          0.0946
   3.2000          0.0942          0.0942          0.0942
   3.2200          0.0936          0.0936          0.0936
   3.2400          0.0930          0.0930          0.0930
   3.2600          0.0924          0.0924          0.0924
   3.2800          0.0919          0.0919          0.0919
   3.3000          0.0915          0.0915          0.0915
   3.3200          0.0913          0.0913          0.0913
   3.3400          0.0914          0.0914          0.0914
   3.3600          0.0917          0.0917          0.0917
   3.3800          0.0923          0.0923          0.0923
   3.4000          0.0931          0.0931          0.0931
   3.4200          0.0941          0.0941          0.0941
   3.4400          0.0950          0.0950          0.0950
   3.4600          0.0960          0.0960          0.0960
   3.4800          0.0968          0.0968          0.0968
   3.5000          0.0976          0.0976          0.0976
   3.5200          0.0983          0.0983          0.0983
   3.5400          0.0991          0.0991          0.0991
   3.5600          0.1000          0.1000          0.1000
   3.5800          0.1010          0.1010          0.1010
   3.6000          0.1023          0.1023          0.1023
   3.6200          0.1037          0.1037          0.1037
   3.6400          0.1054          0.1054          0.1054
   3.6600          0.1073          0.1073          0.1073
   3.6800          0.1092          0.1092          0.1092
   3.7000          0.1111          0.1111          0.1111
   3.7200          0.1128          0.1128          0.1128
   3.7400          0.1143          0.1143          0.1143
   3.7600          0.1154          0.1154          0.1154
   3.7800          0.1162          0.1162          0.1162
   3.8000          0.1165          0.1165          0.1165
   3.8200          0.1165          0.1165          0.1165
   3.8400          0.1162          0.1162          0.1162
   3.8600          0.1157          0.1157          0.1157
   3.8800          0.1151          0.1151          0.1151
   3.9000          0.1145          0.1145          0.1145
   3.9200          0.1139          0.1139          0.1139
   3.9400          0.1136          0.1136          0.1136
   3.9600          0.1135          0.1135          0.1135
   3.9800          0.1138          0.1138          0.1138
   4.0000          0.1144          0.1144          0.1144
   4.0200          0.1154          0.1154          0.1154
   4.0400          0.1167          0.1167          0.1167
   4.0600          0.1184          0.1184          0.1184
   4.0800          0.1204          0.1204          0.1204
   4.1000          0.1227          0.1227          0.1227
   4.1200          0.1251          0.1251          0.1251
   4.1400          0.1276          0.1276          0.1276
   4.1600          0.1302          0.1302          0.1302
   4.1800          0.1327          0.1327          0.1327
   4.2000          0.1351          0.1351          0.1351
   4.2200          0.1374          0.1374          0.1374
   4.2400          0.1396          0.1396          0.1396
   4.2600          0.1416          0.1416          0.1416
   4.2800          0.1435          0.1435          0.1435
   4.3000          0.1450          0.1450          0.1450
   4.3200          0.1463          0.1463          0.1463
   4.3400          0.1471          0.1471          0.1471
   4.3600          0.1477          0.1477          0.1477
   4.3800          0.1480          0.1480          0.1480
   4.4000          0.1480          0.1480          0.1480
   4.4200          0.1481          0.1481          0.1481
   4.4400          0.1482          0.1482          0.1482
   4.4600          0.1485          0.1485          0.1485
   4.4800          0.1490          0.1490          0.1490
   4.5000          0.1499          0.1499          0.1499
   4.5200          0.1511          0.1511          0.1511
   4.5400          0.1526          0.1526          0.1526
   4.5600          0.1544          0.1544          0.1544
   4.5800          0.1565          0.1565          0.1565
   4.6000          0.1588          0.1588          0.1588
   4.6200          0.1612          0.1612          0.1612
   4.6400          0.1638          0.1638          0.1638
   4.6600          0.1664          0.1664          0.1664
   4.6800          0.1690          0.1690          0.1690
   4.7000          0.1713          0.1713          0.1713
   4.7200          0.1735          0.1735          0.1735
   4.7400          0.1752          0.1752          0.1752
   4.7600          0.1765          0.1765          0.1765
   4.7800          0.1773          0.1773          0.1773
   4.8000          0.1777          0.1777          0.1777
   4.8200          0.1778          0.1778          0.1778
   4.8400          0.1777          0.1777          0.1777
   4.8600          0.1774          0.1774          0.1774
   4.8800          0.1772          0.1772          0.1772
   4.9000          0.1771          0.1771          0.1771
   4.9200          0.1771          0.1771          0.1771
   4.9400          0.1774          0.1774          0.1774
   4.9600          0.1779          0.1779          0.1779
   4.9800          0.1788          0.1788          0.1788
   5.0000          0.1800          0.1800          0.1800
   5.0200          0.1815          0.1815          0.1815
   5.0400          0.1833          0.1833          0.1833
   5.0600          0.1853          0.1853          0.1853
   5.0800          0.1875          0.1875          0.1875
   5.1000          0.1897          0.1897          0.1897
   5.1200          0.1921          0.1921          0.1921
   5.1400          0.1944          0.1944          0.1944
   5.1600          0.1967          0.1967          0.1967
   5.1800          0.1988          0.1988          0.1988
   5.2000          0.2007          0.2007          0.2007
   5.2200          0.2023          0.2023          0.2023
   5.2400          0.2034          0.2034          0.2034
   5.2600          0.2042          0.2042          0.2042
   5.2800          0.2045          0.2045          0.2045
   5.3000          0.2045          0.2045          0.2045
   5.3200          0.2043          0.2043          0.2043
   5.3400          0.2039          0.2039          0.2039
   5.3600          0.2035          0.2035          0.2035
   5.3800          0.2031          0.2031          0.2031
   5.4000          0.2027          0.2027          0.2027
   5.4200          0.2023          0.2023          0.2023
   5.4400          0.2021          0.2021          0.2021
   5.4600          0.2019          0.2019          0.2019
   5.4800          0.2018          0.2018          0.2018
   5.5000          0.2017          0.2017          0.2017
   5.5200          0.2018          0.2018          0.2018
   5.5400          0.2019          0.2019          0.2019
   5.5600          0.2021          0.2021          0.2021
   5.5800          0.2024          0.2024          0.2024
   5.6000          0.2027          0.2027          0.2027
   5.6200          0.2032          0.2032          0.2032
   5.6400          0.2039          0.2039          0.2039
   5.6600          0.2047          0.2047          0.2047
   5.6800          0.2056          0.2056          0.2056
   5.7000          0.2067          0.2067          0.2067
   5.7200          0.2080          0.2080          0.2080
   5.7400          0.2093          0.2093          0.2093
   5.7600          0.2107          0.2107          0.2107
   5.7800          0.2121          0.2121          0.2121
   5.8000          0.2133          0.2133          0.2133
   5.8200          0.2142          0.2142          0.2142
   5.8400          0.2148          0.2148          0.2148
   5.8600          0.2150          0.2150          0.2150
   5.8800          0.2148          0.2148          0.2148
   5.9000          0.2143          0.2143          0.2143
   5.9200          0.2134          0.2134          0.2134
   5.9400          0.2124          0.2124          0.2124
   5.9600          0.2111          0.2111          0.2111
   5.9800          0.2099          0.2099          0.2099
   6.0000          0.2086          0.2086          0.2086
   6.0200          0.2074          0.2074          0.2074
   6.0400          0.2063          0.2063          0.2063
   6.0600          0.2055          0.2055          0.2055
   6.0800          0.2047          0.2047          0.2047
   6.1000          0.2042          0.2042          0.2042
   6.1200          0.2037          0.2037          0.2037
   6.1400          0.2035          0.2035          0.2035
   6.1600          0.2033          0.2033          0.2033
   6.1800          0.2033          0.2033          0.2033
   6.2000          0.2033          0.2033          0.2033
   6.2200          0.2033          0.2033          0.2033
   6.2400          0.2032          0.2032          0.2032
   6.2600          0.2028          0.2028          0.2028
   6.2800          0.2022          0.2022          0.2022
   6.3000          0.2012          0.2012          0.2012
   6.3200          0.1998          0.1998          0.1998
   6.3400          0.1981          0.1981          0.1981
   6.3600          0.1960          0.1960          0.1960
   6.3800          0.1938          0.1938          0.1938
   6.4000          0.1916          0.1916          0.1916
   6.4200          0.1894          0.1894          0.1894
   6.4400          0.1875          0.1875          0.1875
   6.4600          0.1859          0.1859          0.1859
   6.4800          0.1846          0.1846          0.1846
   6.5000          0.1837          0.1837          0.1837
   6.5200          0.1831          0.1831          0.1831
   6.5400          0.1828          0.1828          0.1828
   6.5600          0.1828          0.1828          0.1828
   6.5800          0.1830          0.1830          0.1830
   6.6000          0.1833          0.1833          0.1833
   6.6200          0.1836          0.1836          0.1836
   6.6400          0.1841          0.1841          0.1841
   6.6600          0.1845          0.1845          0.1845
   6.6800          0.1848          0.1848          0.1848
   6.7000          0.1852          0.1852          0.1852
   6.7200          0.1856          0.1856          0.1856
   6.7400          0.1860          0.1860          0.1860
   6.7600          0.1865          0.1865          0.1865
   6.7800          0.1870          0.1870          0.1870
   6.8000          0.1877          0.1877          0.1877
   6.8200          0.1883          0.1883          0.1883
   6.8400          0.1889          0.1889          0.1889
   6.8600          0.1894          0.1894          0.1894
