### imag part of conductivity (in units of 10^15 sec^-1)
   0.0000          3.2898          3.2898          3.2898          0.0000          0.0000          0.0000
   0.0200          3.3200          3.3200          3.3200          0.0000          0.0000          0.0000
   0.0400          3.3501          3.3501          3.3501          0.0000          0.0000          0.0000
   0.0600          3.3802          3.3802          3.3802          0.0000          0.0000          0.0000
   0.0800          3.4102          3.4102          3.4102          0.0000          0.0000          0.0000
   0.1000          3.4400          3.4400          3.4400          0.0000          0.0000          0.0000
   0.1200          3.4697          3.4697          3.4697          0.0000          0.0000          0.0000
   0.1400          3.4992          3.4992          3.4992          0.0000          0.0000          0.0000
   0.1600          3.5285          3.5285          3.5285          0.0000          0.0000          0.0000
   0.1800          3.5575          3.5575          3.5575          0.0000          0.0000          0.0000
   0.2000          3.5863          3.5863          3.5863          0.0000          0.0000          0.0000
   0.2200          3.6147          3.6147          3.6147          0.0000          0.0000          0.0000
   0.2400          3.6428          3.6428          3.6428          0.0000          0.0000          0.0000
   0.2600          3.6705          3.6705          3.6705          0.0000          0.0000          0.0000
   0.2800          3.6978          3.6978          3.6978          0.0000          0.0000          0.0000
   0.3000          3.7247          3.7247          3.7247          0.0000          0.0000          0.0000
   0.3200          3.7511          3.7511          3.7511          0.0000          0.0000          0.0000
   0.3400          3.7770          3.7770          3.7770          0.0000          0.0000          0.0000
   0.3600          3.8024          3.8024          3.8024          0.0000          0.0000          0.0000
   0.3800          3.8273          3.8273          3.8273          0.0000          0.0000          0.0000
   0.4000          3.8517          3.8517          3.8517          0.0000          0.0000          0.0000
   0.4200          3.8754          3.8754          3.8754          0.0000          0.0000          0.0000
   0.4400          3.8986          3.8986          3.8986          0.0000          0.0000          0.0000
   0.4600          3.9211          3.9211          3.9211          0.0000          0.0000          0.0000
   0.4800          3.9430          3.9430          3.9430          0.0000          0.0000          0.0000
   0.5000          3.9643          3.9643          3.9643          0.0000          0.0000          0.0000
   0.5200          3.9848          3.9848          3.9848          0.0000          0.0000          0.0000
   0.5400          4.0046          4.0046          4.0046          0.0000          0.0000          0.0000
   0.5600          4.0238          4.0238          4.0238          0.0000          0.0000          0.0000
   0.5800          4.0421          4.0421          4.0421          0.0000          0.0000          0.0000
   0.6000          4.0598          4.0598          4.0598          0.0000          0.0000          0.0000
   0.6200          4.0766          4.0766          4.0766          0.0000          0.0000          0.0000
   0.6400          4.0927          4.0927          4.0927          0.0000          0.0000          0.0000
   0.6600          4.1080          4.1080          4.1080          0.0000          0.0000          0.0000
   0.6800          4.1224          4.1224          4.1224          0.0000          0.0000          0.0000
   0.7000          4.1361          4.1361          4.1361          0.0000          0.0000          0.0000
   0.7200          4.1489          4.1489          4.1489          0.0000          0.0000          0.0000
   0.7400          4.1609          4.1609          4.1609          0.0000          0.0000          0.0000
   0.7600          4.1720          4.1720          4.1720          0.0000          0.0000          0.0000
   0.7800          4.1822          4.1822          4.1822          0.0000          0.0000          0.0000
   0.8000          4.1916          4.1916          4.1916          0.0000          0.0000          0.0000
   0.8200          4.2001          4.2001          4.2001          0.0000          0.0000          0.0000
   0.8400          4.2077          4.2077          4.2077          0.0000          0.0000          0.0000
   0.8600          4.2144          4.2144          4.2144          0.0000          0.0000          0.0000
   0.8800          4.2202          4.2202          4.2202          0.0000          0.0000          0.0000
   0.9000          4.2251          4.2251          4.2251          0.0000          0.0000          0.0000
   0.9200          4.2290          4.2290          4.2290          0.0000          0.0000          0.0000
   0.9400          4.2320          4.2320          4.2320          0.0000          0.0000          0.0000
   0.9600          4.2341          4.2341          4.2341          0.0000          0.0000          0.0000
   0.9800          4.2353          4.2353          4.2353          0.0000          0.0000          0.0000
   1.0000          4.2355          4.2355          4.2355          0.0000          0.0000          0.0000
   1.0200          4.2347          4.2347          4.2347          0.0000          0.0000          0.0000
   1.0400          4.2330          4.2330          4.2330          0.0000          0.0000          0.0000
   1.0600          4.2303          4.2303          4.2303          0.0000          0.0000          0.0000
   1.0800          4.2266          4.2266          4.2266          0.0000          0.0000          0.0000
   1.1000          4.2220          4.2220          4.2220          0.0000          0.0000          0.0000
   1.1200          4.2163          4.2163          4.2163          0.0000          0.0000          0.0000
   1.1400          4.2097          4.2097          4.2097          0.0000          0.0000          0.0000
   1.1600          4.2020          4.2020          4.2020          0.0000          0.0000          0.0000
   1.1800          4.1933          4.1933          4.1933          0.0000          0.0000          0.0000
   1.2000          4.1835          4.1835          4.1835          0.0000          0.0000          0.0000
   1.2200          4.1727          4.1727          4.1727          0.0000          0.0000          0.0000
   1.2400          4.1609          4.1609          4.1609          0.0000          0.0000          0.0000
   1.2600          4.1479          4.1479          4.1479          0.0000          0.0000          0.0000
   1.2800          4.1338          4.1338          4.1338          0.0000          0.0000          0.0000
   1.3000          4.1186          4.1186          4.1186          0.0000          0.0000          0.0000
   1.3200          4.1023          4.1023          4.1023          0.0000          0.0000          0.0000
   1.3400          4.0847          4.0847          4.0847          0.0000          0.0000          0.0000
   1.3600          4.0660          4.0660          4.0660          0.0000          0.0000          0.0000
   1.3800          4.0460          4.0460          4.0460          0.0000          0.0000          0.0000
   1.4000          4.0248          4.0248          4.0248          0.0000          0.0000          0.0000
   1.4200          4.0022          4.0022          4.0022          0.0000          0.0000          0.0000
   1.4400          3.9783          3.9783          3.9783          0.0000          0.0000          0.0000
   1.4600          3.9529          3.9529          3.9529          0.0000          0.0000          0.0000
   1.4800          3.9261          3.9261          3.9261          0.0000          0.0000          0.0000
   1.5000          3.8978          3.8978          3.8978          0.0000          0.0000          0.0000
   1.5200          3.8678          3.8678          3.8678          0.0000          0.0000          0.0000
   1.5400          3.8362          3.8362          3.8362          0.0000          0.0000          0.0000
   1.5600          3.8029          3.8029          3.8029          0.0000          0.0000          0.0000
   1.5800          3.7678          3.7678          3.7678          0.0000          0.0000          0.0000
   1.6000          3.7308          3.7308          3.7308          0.0000          0.0000          0.0000
   1.6200          3.6919          3.6919          3.6919          0.0000          0.0000          0.0000
   1.6400          3.6510          3.6510          3.6510          0.0000          0.0000          0.0000
   1.6600          3.6080          3.6080          3.6080          0.0000          0.0000          0.0000
   1.6800          3.5629          3.5629          3.5629          0.0000          0.0000          0.0000
   1.7000          3.5157          3.5157          3.5157          0.0000          0.0000          0.0000
   1.7200          3.4665          3.4665          3.4665          0.0000          0.0000          0.0000
   1.7400          3.4153          3.4153          3.4153          0.0000          0.0000          0.0000
   1.7600          3.3625          3.3625          3.3625          0.0000          0.0000          0.0000
   1.7800          3.3084          3.3084          3.3084          0.0000          0.0000          0.0000
   1.8000          3.2539          3.2539          3.2539          0.0000          0.0000          0.0000
   1.8200          3.1997          3.1997          3.1997          0.0000          0.0000          0.0000
   1.8400          3.1469          3.1469          3.1469          0.0000          0.0000          0.0000
   1.8600          3.0968          3.0968          3.0968          0.0000          0.0000          0.0000
   1.8800          3.0504          3.0504          3.0504          0.0000          0.0000          0.0000
   1.9000          3.0087          3.0087          3.0087          0.0000          0.0000          0.0000
   1.9200          2.9722          2.9722          2.9722          0.0000          0.0000          0.0000
   1.9400          2.9409          2.9409          2.9409          0.0000          0.0000          0.0000
   1.9600          2.9139          2.9139          2.9139          0.0000          0.0000          0.0000
   1.9800          2.8903          2.8903          2.8903          0.0000          0.0000          0.0000
   2.0000          2.8684          2.8684          2.8684          0.0000          0.0000          0.0000
   2.0200          2.8471          2.8471          2.8471          0.0000          0.0000          0.0000
   2.0400          2.8254          2.8254          2.8254          0.0000          0.0000          0.0000
   2.0600          2.8029          2.8029          2.8029          0.0000          0.0000          0.0000
   2.0800          2.7801          2.7801          2.7801          0.0000          0.0000          0.0000
   2.1000          2.7579          2.7579          2.7579          0.0000          0.0000          0.0000
   2.1200          2.7377          2.7377          2.7377          0.0000          0.0000          0.0000
   2.1400          2.7211          2.7211          2.7211          0.0000          0.0000          0.0000
   2.1600          2.7095          2.7095          2.7095          0.0000          0.0000          0.0000
   2.1800          2.7043          2.7043          2.7043          0.0000          0.0000          0.0000
   2.2000          2.7063          2.7063          2.7063          0.0000          0.0000          0.0000
   2.2200          2.7161          2.7161          2.7161          0.0000          0.0000          0.0000
   2.2400          2.7339          2.7339          2.7339          0.0000          0.0000          0.0000
   2.2600          2.7596          2.7596          2.7596          0.0000          0.0000          0.0000
   2.2800          2.7928          2.7928          2.7928          0.0000          0.0000          0.0000
   2.3000          2.8326          2.8326          2.8326          0.0000          0.0000          0.0000
   2.3200          2.8783          2.8783          2.8783          0.0000          0.0000          0.0000
   2.3400          2.9284          2.9284          2.9284          0.0000          0.0000          0.0000
   2.3600          2.9814          2.9814          2.9814          0.0000          0.0000          0.0000
   2.3800          3.0354          3.0354          3.0354          0.0000          0.0000          0.0000
   2.4000          3.0881          3.0881          3.0881          0.0000          0.0000          0.0000
   2.4200          3.1375          3.1375          3.1375          0.0000          0.0000          0.0000
   2.4400          3.1816          3.1816          3.1816          0.0000          0.0000          0.0000
   2.4600          3.2187          3.2187          3.2187          0.0000          0.0000          0.0000
   2.4800          3.2478          3.2478          3.2478          0.0000          0.0000          0.0000
   2.5000          3.2684          3.2684          3.2684          0.0000          0.0000          0.0000
   2.5200          3.2804          3.2804          3.2804          0.0000          0.0000          0.0000
   2.5400          3.2843          3.2843          3.2843          0.0000          0.0000          0.0000
   2.5600          3.2811          3.2811          3.2811          0.0000          0.0000          0.0000
   2.5800          3.2719          3.2719          3.2719          0.0000          0.0000          0.0000
   2.6000          3.2582          3.2582          3.2582          0.0000          0.0000          0.0000
   2.6200          3.2419          3.2419          3.2419          0.0000          0.0000          0.0000
   2.6400          3.2246          3.2246          3.2246          0.0000          0.0000          0.0000
   2.6600          3.2084          3.2084          3.2084          0.0000          0.0000          0.0000
   2.6800          3.1949          3.1949          3.1949          0.0000          0.0000          0.0000
   2.7000          3.1858          3.1858          3.1858          0.0000          0.0000          0.0000
   2.7200          3.1825          3.1825          3.1825          0.0000          0.0000          0.0000
   2.7400          3.1859          3.1859          3.1859          0.0000          0.0000          0.0000
   2.7600          3.1965          3.1965          3.1965          0.0000          0.0000          0.0000
   2.7800          3.2142          3.2142          3.2142          0.0000          0.0000          0.0000
   2.8000          3.2386          3.2386          3.2386          0.0000          0.0000          0.0000
   2.8200          3.2687          3.2687          3.2687          0.0000          0.0000          0.0000
   2.8400          3.3030          3.3030          3.3030          0.0000          0.0000          0.0000
   2.8600          3.3397          3.3397          3.3397          0.0000          0.0000          0.0000
   2.8800          3.3763          3.3763          3.3763          0.0000          0.0000          0.0000
   2.9000          3.4102          3.4102          3.4102          0.0000          0.0000          0.0000
   2.9200          3.4387          3.4387          3.4387          0.0000          0.0000          0.0000
   2.9400          3.4595          3.4595          3.4595          0.0000          0.0000          0.0000
   2.9600          3.4708          3.4708          3.4708          0.0000          0.0000          0.0000
   2.9800          3.4720          3.4720          3.4720          0.0000          0.0000          0.0000
   3.0000          3.4633          3.4633          3.4633          0.0000          0.0000          0.0000
   3.0200          3.4458          3.4458          3.4458          0.0000          0.0000          0.0000
   3.0400          3.4216          3.4216          3.4216          0.0000          0.0000          0.0000
   3.0600          3.3927          3.3927          3.3927          0.0000          0.0000          0.0000
   3.0800          3.3615          3.3615          3.3615          0.0000          0.0000          0.0000
   3.1000          3.3300          3.3300          3.3300          0.0000          0.0000          0.0000
   3.1200          3.2998          3.2998          3.2998          0.0000          0.0000          0.0000
   3.1400          3.2722          3.2722          3.2722          0.0000          0.0000          0.0000
   3.1600          3.2484          3.2484          3.2484          0.0000          0.0000          0.0000
   3.1800          3.2296          3.2296          3.2296          0.0000          0.0000          0.0000
   3.2000          3.2175          3.2175          3.2175          0.0000          0.0000          0.0000
   3.2200          3.2139          3.2139          3.2139          0.0000          0.0000          0.0000
   3.2400          3.2213          3.2213          3.2213          0.0000          0.0000          0.0000
   3.2600          3.2417          3.2417          3.2417          0.0000          0.0000          0.0000
   3.2800          3.2759          3.2759          3.2759          0.0000          0.0000          0.0000
   3.3000          3.3233          3.3233          3.3233          0.0000          0.0000          0.0000
   3.3200          3.3812          3.3812          3.3812          0.0000          0.0000          0.0000
   3.3400          3.4450          3.4450          3.4450          0.0000          0.0000          0.0000
   3.3600          3.5094          3.5094          3.5094          0.0000          0.0000          0.0000
   3.3800          3.5691          3.5691          3.5691          0.0000          0.0000          0.0000
   3.4000          3.6202          3.6202          3.6202          0.0000          0.0000          0.0000
   3.4200          3.6613          3.6613          3.6613          0.0000          0.0000          0.0000
   3.4400          3.6929          3.6929          3.6929          0.0000          0.0000          0.0000
   3.4600          3.7181          3.7181          3.7181          0.0000          0.0000          0.0000
   3.4800          3.7405          3.7405          3.7405          0.0000          0.0000          0.0000
   3.5000          3.7638          3.7638          3.7638          0.0000          0.0000          0.0000
   3.5200          3.7903          3.7903          3.7903          0.0000          0.0000          0.0000
   3.5400          3.8206          3.8206          3.8206          0.0000          0.0000          0.0000
   3.5600          3.8533          3.8533          3.8533          0.0000          0.0000          0.0000
   3.5800          3.8857          3.8857          3.8857          0.0000          0.0000          0.0000
   3.6000          3.9141          3.9141          3.9141          0.0000          0.0000          0.0000
   3.6200          3.9350          3.9350          3.9350          0.0000          0.0000          0.0000
   3.6400          3.9455          3.9455          3.9455          0.0000          0.0000          0.0000
   3.6600          3.9442          3.9442          3.9442          0.0000          0.0000          0.0000
   3.6800          3.9311          3.9311          3.9311          0.0000          0.0000          0.0000
   3.7000          3.9074          3.9074          3.9074          0.0000          0.0000          0.0000
   3.7200          3.8757          3.8757          3.8757          0.0000          0.0000          0.0000
   3.7400          3.8390          3.8390          3.8390          0.0000          0.0000          0.0000
