### real part of conductivity (in units of 10^15 sec^-1)
   0.0000          0.0000          0.0000          0.0000          0.0000          0.0000          0.0000
   0.0200          4.8636          4.8636          4.8636          0.0000          0.0000          0.0000
   0.0400          4.8621          4.8621          4.8621          0.0000          0.0000          0.0000
   0.0600          4.8597          4.8597          4.8597          0.0000          0.0000          0.0000
   0.0800          4.8564          4.8564          4.8564          0.0000          0.0000          0.0000
   0.1000          4.8521          4.8521          4.8521          0.0000          0.0000          0.0000
   0.1200          4.8468          4.8468          4.8468          0.0000          0.0000          0.0000
   0.1400          4.8406          4.8406          4.8406          0.0000          0.0000          0.0000
   0.1600          4.8335          4.8335          4.8335          0.0000          0.0000          0.0000
   0.1800          4.8254          4.8254          4.8254          0.0000          0.0000          0.0000
   0.2000          4.8164          4.8164          4.8164          0.0000          0.0000          0.0000
   0.2200          4.8065          4.8065          4.8065          0.0000          0.0000          0.0000
   0.2400          4.7958          4.7958          4.7958          0.0000          0.0000          0.0000
   0.2600          4.7841          4.7841          4.7841          0.0000          0.0000          0.0000
   0.2800          4.7716          4.7716          4.7716          0.0000          0.0000          0.0000
   0.3000          4.7582          4.7582          4.7582          0.0000          0.0000          0.0000
   0.3200          4.7440          4.7440          4.7440          0.0000          0.0000          0.0000
   0.3400          4.7290          4.7290          4.7290          0.0000          0.0000          0.0000
   0.3600          4.7132          4.7132          4.7132          0.0000          0.0000          0.0000
   0.3800          4.6966          4.6966          4.6966          0.0000          0.0000          0.0000
   0.4000          4.6792          4.6792          4.6792          0.0000          0.0000          0.0000
   0.4200          4.6611          4.6611          4.6611          0.0000          0.0000          0.0000
   0.4400          4.6422          4.6422          4.6422          0.0000          0.0000          0.0000
   0.4600          4.6226          4.6226          4.6226          0.0000          0.0000          0.0000
   0.4800          4.6024          4.6024          4.6024          0.0000          0.0000          0.0000
   0.5000          4.5815          4.5815          4.5815          0.0000          0.0000          0.0000
   0.5200          4.5599          4.5599          4.5599          0.0000          0.0000          0.0000
   0.5400          4.5377          4.5377          4.5377          0.0000          0.0000          0.0000
   0.5600          4.5150          4.5150          4.5150          0.0000          0.0000          0.0000
   0.5800          4.4916          4.4916          4.4916          0.0000          0.0000          0.0000
   0.6000          4.4677          4.4677          4.4677          0.0000          0.0000          0.0000
   0.6200          4.4433          4.4433          4.4433          0.0000          0.0000          0.0000
   0.6400          4.4183          4.4183          4.4183          0.0000          0.0000          0.0000
   0.6600          4.3929          4.3929          4.3929          0.0000          0.0000          0.0000
   0.6800          4.3670          4.3670          4.3670          0.0000          0.0000          0.0000
   0.7000          4.3407          4.3407          4.3407          0.0000          0.0000          0.0000
   0.7200          4.3140          4.3140          4.3140          0.0000          0.0000          0.0000
   0.7400          4.2869          4.2869          4.2869          0.0000          0.0000          0.0000
   0.7600          4.2594          4.2594          4.2594          0.0000          0.0000          0.0000
   0.7800          4.2316          4.2316          4.2316          0.0000          0.0000          0.0000
   0.8000          4.2035          4.2035          4.2035          0.0000          0.0000          0.0000
   0.8200          4.1750          4.1750          4.1750          0.0000          0.0000          0.0000
   0.8400          4.1463          4.1463          4.1463          0.0000          0.0000          0.0000
   0.8600          4.1174          4.1174          4.1174          0.0000          0.0000          0.0000
   0.8800          4.0882          4.0882          4.0882          0.0000          0.0000          0.0000
   0.9000          4.0588          4.0588          4.0588          0.0000          0.0000          0.0000
   0.9200          4.0292          4.0292          4.0292          0.0000          0.0000          0.0000
   0.9400          3.9995          3.9995          3.9995          0.0000          0.0000          0.0000
   0.9600          3.9696          3.9696          3.9696          0.0000          0.0000          0.0000
   0.9800          3.9397          3.9397          3.9397          0.0000          0.0000          0.0000
   1.0000          3.9096          3.9096          3.9096          0.0000          0.0000          0.0000
   1.0200          3.8794          3.8794          3.8794          0.0000          0.0000          0.0000
   1.0400          3.8492          3.8492          3.8492          0.0000          0.0000          0.0000
   1.0600          3.8190          3.8190          3.8190          0.0000          0.0000          0.0000
   1.0800          3.7888          3.7888          3.7888          0.0000          0.0000          0.0000
   1.1000          3.7585          3.7585          3.7585          0.0000          0.0000          0.0000
   1.1200          3.7283          3.7283          3.7283          0.0000          0.0000          0.0000
   1.1400          3.6982          3.6982          3.6982          0.0000          0.0000          0.0000
   1.1600          3.6681          3.6681          3.6681          0.0000          0.0000          0.0000
   1.1800          3.6381          3.6381          3.6381          0.0000          0.0000          0.0000
   1.2000          3.6082          3.6082          3.6082          0.0000          0.0000          0.0000
   1.2200          3.5785          3.5785          3.5785          0.0000          0.0000          0.0000
   1.2400          3.5489          3.5489          3.5489          0.0000          0.0000          0.0000
   1.2600          3.5195          3.5195          3.5195          0.0000          0.0000          0.0000
   1.2800          3.4903          3.4903          3.4903          0.0000          0.0000          0.0000
   1.3000          3.4614          3.4614          3.4614          0.0000          0.0000          0.0000
   1.3200          3.4326          3.4326          3.4326          0.0000          0.0000          0.0000
   1.3400          3.4042          3.4042          3.4042          0.0000          0.0000          0.0000
   1.3600          3.3761          3.3761          3.3761          0.0000          0.0000          0.0000
   1.3800          3.3483          3.3483          3.3483          0.0000          0.0000          0.0000
   1.4000          3.3210          3.3210          3.3210          0.0000          0.0000          0.0000
   1.4200          3.2940          3.2940          3.2940          0.0000          0.0000          0.0000
   1.4400          3.2675          3.2675          3.2675          0.0000          0.0000          0.0000
   1.4600          3.2416          3.2416          3.2416          0.0000          0.0000          0.0000
   1.4800          3.2162          3.2162          3.2162          0.0000          0.0000          0.0000
   1.5000          3.1915          3.1915          3.1915          0.0000          0.0000          0.0000
   1.5200          3.1675          3.1675          3.1675          0.0000          0.0000          0.0000
   1.5400          3.1443          3.1443          3.1443          0.0000          0.0000          0.0000
   1.5600          3.1221          3.1221          3.1221          0.0000          0.0000          0.0000
   1.5800          3.1010          3.1010          3.1010          0.0000          0.0000          0.0000
   1.6000          3.0812          3.0812          3.0812          0.0000          0.0000          0.0000
   1.6200          3.0628          3.0628          3.0628          0.0000          0.0000          0.0000
   1.6400          3.0460          3.0460          3.0460          0.0000          0.0000          0.0000
   1.6600          3.0311          3.0311          3.0311          0.0000          0.0000          0.0000
   1.6800          3.0184          3.0184          3.0184          0.0000          0.0000          0.0000
   1.7000          3.0083          3.0083          3.0083          0.0000          0.0000          0.0000
   1.7200          3.0011          3.0011          3.0011          0.0000          0.0000          0.0000
   1.7400          2.9975          2.9975          2.9975          0.0000          0.0000          0.0000
   1.7600          2.9979          2.9979          2.9979          0.0000          0.0000          0.0000
   1.7800          3.0030          3.0030          3.0030          0.0000          0.0000          0.0000
   1.8000          3.0132          3.0132          3.0132          0.0000          0.0000          0.0000
   1.8200          3.0289          3.0289          3.0289          0.0000          0.0000          0.0000
   1.8400          3.0502          3.0502          3.0502          0.0000          0.0000          0.0000
   1.8600          3.0771          3.0771          3.0771          0.0000          0.0000          0.0000
   1.8800          3.1087          3.1087          3.1087          0.0000          0.0000          0.0000
   1.9000          3.1441          3.1441          3.1441          0.0000          0.0000          0.0000
   1.9200          3.1820          3.1820          3.1820          0.0000          0.0000          0.0000
   1.9400          3.2207          3.2207          3.2207          0.0000          0.0000          0.0000
   1.9600          3.2591          3.2591          3.2591          0.0000          0.0000          0.0000
   1.9800          3.2962          3.2962          3.2962          0.0000          0.0000          0.0000
   2.0000          3.3317          3.3317          3.3317          0.0000          0.0000          0.0000
   2.0200          3.3662          3.3662          3.3662          0.0000          0.0000          0.0000
   2.0400          3.4006          3.4006          3.4006          0.0000          0.0000          0.0000
   2.0600          3.4364          3.4364          3.4364          0.0000          0.0000          0.0000
   2.0800          3.4749          3.4749          3.4749          0.0000          0.0000          0.0000
   2.1000          3.5173          3.5173          3.5173          0.0000          0.0000          0.0000
   2.1200          3.5641          3.5641          3.5641          0.0000          0.0000          0.0000
   2.1400          3.6155          3.6155          3.6155          0.0000          0.0000          0.0000
   2.1600          3.6709          3.6709          3.6709          0.0000          0.0000          0.0000
   2.1800          3.7293          3.7293          3.7293          0.0000          0.0000          0.0000
   2.2000          3.7895          3.7895          3.7895          0.0000          0.0000          0.0000
   2.2200          3.8500          3.8500          3.8500          0.0000          0.0000          0.0000
   2.2400          3.9093          3.9093          3.9093          0.0000          0.0000          0.0000
   2.2600          3.9659          3.9659          3.9659          0.0000          0.0000          0.0000
   2.2800          4.0183          4.0183          4.0183          0.0000          0.0000          0.0000
   2.3000          4.0651          4.0651          4.0651          0.0000          0.0000          0.0000
   2.3200          4.1050          4.1050          4.1050          0.0000          0.0000          0.0000
   2.3400          4.1368          4.1368          4.1368          0.0000          0.0000          0.0000
   2.3600          4.1596          4.1596          4.1596          0.0000          0.0000          0.0000
   2.3800          4.1727          4.1727          4.1727          0.0000          0.0000          0.0000
   2.4000          4.1761          4.1761          4.1761          0.0000          0.0000          0.0000
   2.4200          4.1704          4.1704          4.1704          0.0000          0.0000          0.0000
   2.4400          4.1566          4.1566          4.1566          0.0000          0.0000          0.0000
   2.4600          4.1362          4.1362          4.1362          0.0000          0.0000          0.0000
   2.4800          4.1114          4.1114          4.1114          0.0000          0.0000          0.0000
   2.5000          4.0841          4.0841          4.0841          0.0000          0.0000          0.0000
   2.5200          4.0565          4.0565          4.0565          0.0000          0.0000          0.0000
   2.5400          4.0306          4.0306          4.0306          0.0000          0.0000          0.0000
   2.5600          4.0081          4.0081          4.0081          0.0000          0.0000          0.0000
   2.5800          3.9904          3.9904          3.9904          0.0000          0.0000          0.0000
   2.6000          3.9786          3.9786          3.9786          0.0000          0.0000          0.0000
   2.6200          3.9737          3.9737          3.9737          0.0000          0.0000          0.0000
   2.6400          3.9758          3.9758          3.9758          0.0000          0.0000          0.0000
   2.6600          3.9849          3.9849          3.9849          0.0000          0.0000          0.0000
   2.6800          4.0005          4.0005          4.0005          0.0000          0.0000          0.0000
   2.7000          4.0215          4.0215          4.0215          0.0000          0.0000          0.0000
   2.7200          4.0465          4.0465          4.0465          0.0000          0.0000          0.0000
   2.7400          4.0739          4.0739          4.0739          0.0000          0.0000          0.0000
   2.7600          4.1018          4.1018          4.1018          0.0000          0.0000          0.0000
   2.7800          4.1281          4.1281          4.1281          0.0000          0.0000          0.0000
   2.8000          4.1511          4.1511          4.1511          0.0000          0.0000          0.0000
   2.8200          4.1687          4.1687          4.1687          0.0000          0.0000          0.0000
   2.8400          4.1795          4.1795          4.1795          0.0000          0.0000          0.0000
   2.8600          4.1822          4.1822          4.1822          0.0000          0.0000          0.0000
   2.8800          4.1760          4.1760          4.1760          0.0000          0.0000          0.0000
   2.9000          4.1609          4.1609          4.1609          0.0000          0.0000          0.0000
   2.9200          4.1379          4.1379          4.1379          0.0000          0.0000          0.0000
   2.9400          4.1087          4.1087          4.1087          0.0000          0.0000          0.0000
   2.9600          4.0758          4.0758          4.0758          0.0000          0.0000          0.0000
   2.9800          4.0423          4.0423          4.0423          0.0000          0.0000          0.0000
   3.0000          4.0110          4.0110          4.0110          0.0000          0.0000          0.0000
   3.0200          3.9847          3.9847          3.9847          0.0000          0.0000          0.0000
   3.0400          3.9654          3.9654          3.9654          0.0000          0.0000          0.0000
   3.0600          3.9544          3.9544          3.9544          0.0000          0.0000          0.0000
   3.0800          3.9522          3.9522          3.9522          0.0000          0.0000          0.0000
   3.1000          3.9587          3.9587          3.9587          0.0000          0.0000          0.0000
   3.1200          3.9734          3.9734          3.9734          0.0000          0.0000          0.0000
   3.1400          3.9959          3.9959          3.9959          0.0000          0.0000          0.0000
   3.1600          4.0257          4.0257          4.0257          0.0000          0.0000          0.0000
   3.1800          4.0625          4.0625          4.0625          0.0000          0.0000          0.0000
   3.2000          4.1061          4.1061          4.1061          0.0000          0.0000          0.0000
   3.2200          4.1555          4.1555          4.1555          0.0000          0.0000          0.0000
   3.2400          4.2092          4.2092          4.2092          0.0000          0.0000          0.0000
   3.2600          4.2642          4.2642          4.2642          0.0000          0.0000          0.0000
   3.2800          4.3165          4.3165          4.3165          0.0000          0.0000          0.0000
   3.3000          4.3616          4.3616          4.3616          0.0000          0.0000          0.0000
   3.3200          4.3951          4.3951          4.3951          0.0000          0.0000          0.0000
   3.3400          4.4142          4.4142          4.4142          0.0000          0.0000          0.0000
   3.3600          4.4180          4.4180          4.4180          0.0000          0.0000          0.0000
   3.3800          4.4082          4.4082          4.4082          0.0000          0.0000          0.0000
   3.4000          4.3885          4.3885          4.3885          0.0000          0.0000          0.0000
   3.4200          4.3637          4.3637          4.3637          0.0000          0.0000          0.0000
   3.4400          4.3384          4.3384          4.3384          0.0000          0.0000          0.0000
   3.4600          4.3161          4.3161          4.3161          0.0000          0.0000          0.0000
   3.4800          4.2981          4.2981          4.2981          0.0000          0.0000          0.0000
   3.5000          4.2834          4.2834          4.2834          0.0000          0.0000          0.0000
   3.5200          4.2695          4.2695          4.2695          0.0000          0.0000          0.0000
   3.5400          4.2531          4.2531          4.2531          0.0000          0.0000          0.0000
   3.5600          4.2309          4.2309          4.2309          0.0000          0.0000          0.0000
   3.5800          4.2010          4.2010          4.2010          0.0000          0.0000          0.0000
   3.6000          4.1627          4.1627          4.1627          0.0000          0.0000          0.0000
   3.6200          4.1174          4.1174          4.1174          0.0000          0.0000          0.0000
   3.6400          4.0677          4.0677          4.0677          0.0000          0.0000          0.0000
   3.6600          4.0171          4.0171          4.0171          0.0000          0.0000          0.0000
   3.6800          3.9697          3.9697          3.9697          0.0000          0.0000          0.0000
   3.7000          3.9289          3.9289          3.9289          0.0000          0.0000          0.0000
   3.7200          3.8978          3.8978          3.8978          0.0000          0.0000          0.0000
   3.7400          3.8782          3.8782          3.8782          0.0000          0.0000          0.0000
